»»»»»»»»»»»»»»»»»»»»»»»»»»»»»»»»»»»» Hysteresis ««««««««««««««««««««««««««««««««««««
»»»  Executed Version:	5.48.1
»»»  Vision Version:	5.48.4 (R)
»»»  Vision Compiled:	9/18/24
»»»  Driver Version:	5.47.0
»»»  Windows Version:	Windows 8 or 8.1
»»»  Processor Information:	x86 (AMD or Intel) - 32 Processors
»»»  Tester Name:	PMF21124-494 (100V)
»»»  Tester S/N:	PMF21124-494
»»»  Internal Amp Type:	100V RevK 270k
»»»  Internal Amp S/N:	iAB2-596/K     
»»»  Execution Count:	1
»»»»»»»»»»»»»»»»»»»»»»»»»»»»»»»»»»»»»»»»»»««««««««««««««««««««««««««««««««««««««««««

Stored:	6/26/2025 - 19:1:0
Configured:	06/26/25 10:24:47 AM
Executed:	06/26/25 07:00:37 PM

»»»»»»»»»»»»»»»»»»»»»»»»»»»»»»»»»»» Sample Info ««««««««««««««««««««««««««««««««««««
Sample Name:	
Lot Name:	
Wafer Name:	
Die Row/Column:	0/0
Capacitor Number:	0
Sample Area (cm2):	1.00e-04
Sample Thickness (microns):	1.50e-01

Amplifier:	Internal

»»»»»»»»»»»»»»»»»»»»»»»»»»»»»»»»»»» Tester Info «««««««««««««««««««««««««««««««««««
Tester Name:	PMF21124-494 (100V)
Tester Serial Number:	PMF21124-494
Return Signal Amp. Level:	1.79 [Index: 2]

»»»»»»»»»»»»»»»»»»»»»»»»»»»»»»»» Hysteresis Info ««««««««««««««««««««««««««««««««««
Task Name:	Hyst-562
Volts:	10.00
Field:	666.67 (kV/cm)
DCBias:	0.00
DCField:	0.00 (kV/cm)
Hysteresis Period (ms):	1.00e+00
Preset:	Enabled
Preset Delay (ms):	1.00e+03
Profile:	Standard Monopolar

»»»»»»»»»»»»»»»»»»»»»»»»»»»»»»»»»»»»»» Data «««««««««««««««««««««««««««««««««««««««
Points:	2001

Valid Data

Point	Time (ms)	Drive Voltage	Measured Polarization (uC/cm2)	Capacitance (uF)	Normalized Capacitance (uF/cm2)	Dielectric Constant	Instantaneous Current (mA)
   1	0.0000e+00	-0.0059	-13.610885	0.000419	4.191591	0.710075	0.008381
   2	5.0000e-04	0.0042	-13.568978	0.000419	4.191591	0.710075	0.008381
   3	1.0000e-03	0.0129	-13.545886	0.000231	2.309652	0.391266	0.004618
   4	1.5000e-03	0.0241	-13.511248	0.000346	3.464478	0.586899	0.006928
   5	2.0000e-03	0.0381	-13.496709	0.000145	1.454225	0.246352	0.002908
   6	2.5000e-03	0.0447	-13.453946	0.000428	4.277134	0.724566	0.008553
   7	3.0000e-03	0.0541	-13.415460	0.000385	3.849420	0.652109	0.007697
   8	3.5000e-03	0.0674	-13.395362	0.000201	2.010253	0.340546	0.004020
   9	4.0000e-03	0.0771	-13.350889	0.000445	4.448219	0.753549	0.008895
  10	4.5000e-03	0.0852	-13.344047	0.000068	0.684341	0.115931	0.001368
  11	5.0000e-03	0.0968	-13.316251	0.000278	2.780137	0.470968	0.005559
  12	5.5000e-03	0.1054	-13.284607	0.000317	3.165079	0.536179	0.006329
  13	6.0000e-03	0.1171	-13.247831	0.000368	3.678335	0.623127	0.007355
  14	6.5000e-03	0.1238	-13.229015	0.000188	1.881939	0.318809	0.003763
  15	7.0000e-03	0.1375	-13.193950	0.000351	3.507250	0.594144	0.007013
  16	7.5000e-03	0.1469	-13.173852	0.000201	2.010253	0.340546	0.004020
  17	8.0000e-03	0.1542	-13.117833	0.000560	5.603045	0.949182	0.011204
  18	8.5000e-03	0.1669	-13.110991	0.000068	0.684341	0.115931	0.001368
  19	9.0000e-03	0.1733	-13.081912	0.000291	2.908451	0.492705	0.005816
  20	9.5000e-03	0.1858	-13.059676	0.000222	2.224110	0.376774	0.004447
  21	1.0000e-02	0.1939	-13.018196	0.000415	4.148820	0.702829	0.008296
  22	1.0500e-02	0.2063	-12.982703	0.000355	3.550021	0.601390	0.007099
  23	1.1000e-02	0.2146	-12.965171	0.000175	1.753625	0.297072	0.003507
  24	1.1500e-02	0.2262	-12.935237	0.000299	2.993994	0.507196	0.005987
  25	1.2000e-02	0.2357	-12.896751	0.000385	3.849420	0.652109	0.007697
  26	1.2500e-02	0.2461	-12.870666	0.000261	2.609052	0.441985	0.005217
  27	1.3000e-02	0.2536	-12.833890	0.000368	3.678335	0.623127	0.007355
  28	1.3500e-02	0.2646	-12.817212	0.000167	1.668082	0.282581	0.003335
  29	1.4000e-02	0.2753	-12.779154	0.000381	3.806649	0.644864	0.007612
  30	1.4500e-02	0.2863	-12.735964	0.000432	4.319905	0.731812	0.008638
  31	1.5000e-02	0.2973	-12.727411	0.000086	0.855427	0.144913	0.001711
  32	1.5500e-02	0.3052	-12.694484	0.000329	3.293393	0.557916	0.006585
  33	1.6000e-02	0.3143	-12.671392	0.000231	2.309652	0.391266	0.004618
  34	1.6500e-02	0.3254	-12.636327	0.000351	3.507250	0.594144	0.007013
  35	1.7000e-02	0.3361	-12.613663	0.000227	2.266881	0.384020	0.004533
  36	1.7500e-02	0.3461	-12.568334	0.000453	4.533762	0.768040	0.009066
  37	1.8000e-02	0.3577	-12.550802	0.000175	1.753625	0.297072	0.003507
  38	1.8500e-02	0.3653	-12.517447	0.000334	3.336164	0.565162	0.006671
  39	1.9000e-02	0.3771	-12.486230	0.000312	3.122308	0.528933	0.006243
  40	1.9500e-02	0.3851	-12.464422	0.000218	2.181338	0.369529	0.004362
  41	2.0000e-02	0.3964	-12.425080	0.000393	3.934963	0.666601	0.007868
  42	2.0500e-02	0.4077	-12.387021	0.000381	3.806649	0.644864	0.007612
  43	2.1000e-02	0.4168	-12.370772	0.000163	1.625311	0.275335	0.003250
  44	2.1500e-02	0.4251	-12.346397	0.000244	2.437966	0.413003	0.004875
  45	2.2000e-02	0.4380	-12.301496	0.000449	4.490990	0.760794	0.008980
  46	2.2500e-02	0.4447	-12.271563	0.000299	2.993994	0.507196	0.005987
  47	2.3000e-02	0.4564	-12.264293	0.000073	0.727113	0.123176	0.001454
  48	2.3500e-02	0.4642	-12.215116	0.000492	4.918704	0.833251	0.009835
  49	2.4000e-02	0.4779	-12.188176	0.000269	2.694594	0.456477	0.005388
  50	2.4500e-02	0.4866	-12.173636	0.000145	1.454225	0.246352	0.002908
  51	2.5000e-02	0.4967	-12.141137	0.000325	3.250622	0.550670	0.006500
  52	2.5500e-02	0.5077	-12.104361	0.000368	3.678335	0.623127	0.007355
  53	2.6000e-02	0.5153	-12.061598	0.000428	4.277134	0.724566	0.008553
  54	2.6500e-02	0.5262	-12.044493	0.000171	1.710854	0.289826	0.003421
  55	2.7000e-02	0.5362	-11.997027	0.000475	4.747619	0.804268	0.009493
  56	2.7500e-02	0.5472	-11.975218	0.000218	2.181338	0.369529	0.004362
  57	2.8000e-02	0.5555	-11.953409	0.000218	2.181338	0.369529	0.004362
  58	2.8500e-02	0.5664	-11.912357	0.000411	4.106048	0.695583	0.008210
  59	2.9000e-02	0.5748	-11.882851	0.000295	2.951222	0.499951	0.005901
  60	2.9500e-02	0.5867	-11.853345	0.000295	2.951222	0.499951	0.005901
  61	3.0000e-02	0.5965	-11.836240	0.000171	1.710854	0.289826	0.003421
  62	3.0500e-02	0.6070	-11.801175	0.000351	3.507250	0.594144	0.007013
  63	3.1000e-02	0.6152	-11.771669	0.000295	2.951222	0.499951	0.005901
  64	3.1500e-02	0.6291	-11.736176	0.000355	3.550021	0.601390	0.007099
  65	3.2000e-02	0.6350	-11.712229	0.000240	2.395195	0.405757	0.004789
  66	3.2500e-02	0.6445	-11.689565	0.000227	2.266881	0.384020	0.004533
  67	3.3000e-02	0.6551	-11.658348	0.000312	3.122308	0.528933	0.006243
  68	3.3500e-02	0.6662	-11.632690	0.000257	2.566280	0.434740	0.005132
  69	3.4000e-02	0.6767	-11.598480	0.000342	3.421707	0.579653	0.006842
  70	3.4500e-02	0.6849	-11.567264	0.000312	3.122308	0.528933	0.006243
  71	3.5000e-02	0.6952	-11.538613	0.000287	2.865680	0.485459	0.005730
  72	3.5500e-02	0.7074	-11.496278	0.000423	4.234362	0.717320	0.008467
  73	3.6000e-02	0.7168	-11.472331	0.000240	2.395195	0.405757	0.004789
  74	3.6500e-02	0.7253	-11.448811	0.000235	2.352424	0.398511	0.004704
  75	3.7000e-02	0.7346	-11.420161	0.000287	2.865680	0.485459	0.005730
  76	3.7500e-02	0.7473	-11.387233	0.000329	3.293393	0.557916	0.006585
  77	3.8000e-02	0.7567	-11.355589	0.000317	3.165079	0.536179	0.006329
  78	3.8500e-02	0.7649	-11.333353	0.000222	2.224110	0.376774	0.004447
  79	3.9000e-02	0.7785	-11.313682	0.000197	1.967482	0.333300	0.003934
  80	3.9500e-02	0.7890	-11.271775	0.000419	4.191591	0.710075	0.008381
  81	4.0000e-02	0.7975	-11.234571	0.000372	3.721106	0.630372	0.007441
  82	4.0500e-02	0.8055	-11.219604	0.000150	1.496997	0.253598	0.002993
  83	4.1000e-02	0.8187	-11.167434	0.000522	5.218103	0.883971	0.010434
  84	4.1500e-02	0.8252	-11.150757	0.000167	1.668082	0.282581	0.003335
  85	4.2000e-02	0.8366	-11.112270	0.000385	3.849420	0.652109	0.007697
  86	4.2500e-02	0.8452	-11.084902	0.000274	2.737366	0.463722	0.005474
  87	4.3000e-02	0.8560	-11.047699	0.000372	3.721106	0.630372	0.007441
  88	4.3500e-02	0.8670	-11.037864	0.000098	0.983741	0.166650	0.001967
  89	4.4000e-02	0.8754	-10.998522	0.000393	3.934963	0.666601	0.007868
  90	4.4500e-02	0.8862	-10.980562	0.000180	1.796396	0.304318	0.003592
  91	4.5000e-02	0.8973	-10.938227	0.000423	4.234362	0.717320	0.008467
  92	4.5500e-02	0.9055	-10.894609	0.000436	4.362676	0.739057	0.008724
  93	4.6000e-02	0.9175	-10.888622	0.000060	0.598799	0.101439	0.001197
  94	4.6500e-02	0.9238	-10.846287	0.000423	4.234362	0.717320	0.008467
  95	4.7000e-02	0.9346	-10.827472	0.000188	1.881939	0.318809	0.003763
  96	4.7500e-02	0.9454	-10.786848	0.000406	4.063277	0.688338	0.008125
  97	4.8000e-02	0.9570	-10.756486	0.000304	3.036765	0.514442	0.006072
  98	4.8500e-02	0.9706	-10.738526	0.000180	1.796396	0.304318	0.003592
  99	4.9000e-02	0.9778	-10.702605	0.000359	3.592792	0.608636	0.007184
 100	4.9500e-02	0.9852	-10.663264	0.000393	3.934963	0.666601	0.007868
 101	5.0000e-02	0.9979	-10.633330	0.000299	2.993994	0.507196	0.005987
 102	5.0500e-02	1.0031	-10.619218	0.000141	1.411454	0.239107	0.002822
 103	5.1000e-02	1.0165	-10.582870	0.000364	3.635564	0.615881	0.007270
 104	5.1500e-02	1.0275	-10.548660	0.000342	3.421707	0.579653	0.006842
 105	5.2000e-02	1.0333	-10.531555	0.000171	1.710854	0.289826	0.003421
 106	5.2500e-02	1.0490	-10.484089	0.000475	4.747619	0.804268	0.009493
 107	5.3000e-02	1.0576	-10.481523	0.000026	0.256628	0.043474	0.000513
 108	5.3500e-02	1.0663	-10.437905	0.000436	4.362676	0.739057	0.008724
 109	5.4000e-02	1.0760	-10.403268	0.000346	3.464478	0.586899	0.006928
 110	5.4500e-02	1.0880	-10.366064	0.000372	3.721106	0.630372	0.007441
 111	5.5000e-02	1.1012	-10.347249	0.000188	1.881939	0.318809	0.003763
 112	5.5500e-02	1.1072	-10.329289	0.000180	1.796396	0.304318	0.003592
 113	5.6000e-02	1.1176	-10.275835	0.000535	5.346417	0.905708	0.010691
 114	5.6500e-02	1.1272	-10.258730	0.000171	1.710854	0.289826	0.003421
 115	5.7000e-02	1.1385	-10.216395	0.000423	4.234362	0.717320	0.008467
 116	5.7500e-02	1.1452	-10.177482	0.000389	3.892192	0.659355	0.007783
 117	5.8000e-02	1.1600	-10.160804	0.000167	1.668082	0.282581	0.003335
 118	5.8500e-02	1.1660	-10.135574	0.000252	2.523509	0.427494	0.005046
 119	5.9000e-02	1.1755	-10.091529	0.000441	4.405448	0.746303	0.008809
 120	5.9500e-02	1.1843	-10.069292	0.000222	2.224110	0.376774	0.004447
 121	6.0000e-02	1.1960	-10.036793	0.000325	3.250622	0.550670	0.006500
 122	6.0500e-02	1.2082	-10.032517	0.000043	0.427713	0.072457	0.000855
 123	6.1000e-02	1.2152	-9.993175	0.000393	3.934963	0.666601	0.007868
 124	6.1500e-02	1.2265	-9.961103	0.000321	3.207850	0.543425	0.006414
 125	6.2000e-02	1.2372	-9.922617	0.000385	3.849420	0.652109	0.007697
 126	6.2500e-02	1.2460	-9.896532	0.000261	2.609052	0.441985	0.005217
 127	6.3000e-02	1.2540	-9.875578	0.000210	2.095796	0.355037	0.004191
 128	6.3500e-02	1.2677	-9.869591	0.000060	0.598799	0.101439	0.001197
 129	6.4000e-02	1.2753	-9.827256	0.000423	4.234362	0.717320	0.008467
 130	6.4500e-02	1.2856	-9.773803	0.000535	5.346417	0.905708	0.010691
 131	6.5000e-02	1.2954	-9.760975	0.000128	1.283140	0.217370	0.002566
 132	6.5500e-02	1.3062	-9.722061	0.000389	3.892192	0.659355	0.007783
 133	6.6000e-02	1.3167	-9.697686	0.000244	2.437966	0.413003	0.004875
 134	6.6500e-02	1.3249	-9.669463	0.000282	2.822908	0.478214	0.005645
 135	6.7000e-02	1.3356	-9.638674	0.000308	3.079536	0.521688	0.006158
 136	6.7500e-02	1.3466	-9.613871	0.000248	2.480738	0.420248	0.004960
 137	6.8000e-02	1.3557	-9.585221	0.000287	2.865680	0.485459	0.005730
 138	6.8500e-02	1.3632	-9.551438	0.000338	3.378936	0.572407	0.006756
 139	6.9000e-02	1.3751	-9.519366	0.000321	3.207850	0.543425	0.006414
 140	6.9500e-02	1.3851	-9.491998	0.000274	2.737366	0.463722	0.005474
 141	7.0000e-02	1.3966	-9.468906	0.000231	2.309652	0.391266	0.004618
 142	7.0500e-02	1.4052	-9.429993	0.000389	3.892192	0.659355	0.007783
 143	7.1000e-02	1.4174	-9.402197	0.000278	2.780137	0.470968	0.005559
 144	7.1500e-02	1.4243	-9.376539	0.000257	2.566280	0.434740	0.005132
 145	7.2000e-02	1.4344	-9.334632	0.000419	4.191591	0.710075	0.008381
 146	7.2500e-02	1.4453	-9.311540	0.000231	2.309652	0.391266	0.004618
 147	7.3000e-02	1.4582	-9.280324	0.000312	3.122308	0.528933	0.006243
 148	7.3500e-02	1.4661	-9.262791	0.000175	1.753625	0.297072	0.003507
 149	7.4000e-02	1.4754	-9.226443	0.000364	3.635564	0.615881	0.007270
 150	7.4500e-02	1.4842	-9.200358	0.000261	2.609052	0.441985	0.005217
 151	7.5000e-02	1.4957	-9.149043	0.000513	5.132561	0.869479	0.010263
 152	7.5500e-02	1.5057	-9.125951	0.000231	2.309652	0.391266	0.004618
 153	7.6000e-02	1.5194	-9.086182	0.000398	3.977734	0.673846	0.007954
 154	7.6500e-02	1.5231	-9.084044	0.000021	0.213857	0.036228	0.000428
 155	7.7000e-02	1.5356	-9.045557	0.000385	3.849420	0.652109	0.007697
 156	7.7500e-02	1.5453	-9.013486	0.000321	3.207850	0.543425	0.006414
 157	7.8000e-02	1.5541	-8.985690	0.000278	2.780137	0.470968	0.005559
 158	7.8500e-02	1.5656	-8.963881	0.000218	2.181338	0.369529	0.004362
 159	7.9000e-02	1.5748	-8.942927	0.000210	2.095796	0.355037	0.004191
 160	7.9500e-02	1.5848	-8.910428	0.000325	3.250622	0.550670	0.006500
 161	8.0000e-02	1.5948	-8.874507	0.000359	3.592792	0.608636	0.007184
 162	8.0500e-02	1.6042	-8.845429	0.000291	2.908451	0.492705	0.005816
 163	8.1000e-02	1.6159	-8.806515	0.000389	3.892192	0.659355	0.007783
 164	8.1500e-02	1.6238	-8.775298	0.000312	3.122308	0.528933	0.006243
 165	8.2000e-02	1.6351	-8.749641	0.000257	2.566280	0.434740	0.005132
 166	8.2500e-02	1.6463	-8.715431	0.000342	3.421707	0.579653	0.006842
 167	8.3000e-02	1.6548	-8.703885	0.000115	1.154826	0.195633	0.002309
 168	8.3500e-02	1.6656	-8.662833	0.000411	4.106048	0.695583	0.008210
 169	8.4000e-02	1.6760	-8.627768	0.000351	3.507250	0.594144	0.007013
 170	8.4500e-02	1.6866	-8.600827	0.000269	2.694594	0.456477	0.005388
 171	8.5000e-02	1.6951	-8.556354	0.000445	4.448219	0.753549	0.008895
 172	8.5500e-02	1.7025	-8.529414	0.000269	2.694594	0.456477	0.005388
 173	8.6000e-02	1.7155	-8.520861	0.000086	0.855427	0.144913	0.001711
 174	8.6500e-02	1.7267	-8.482375	0.000385	3.849420	0.652109	0.007697
 175	8.7000e-02	1.7363	-8.440895	0.000415	4.148820	0.702829	0.008296
 176	8.7500e-02	1.7484	-8.422935	0.000180	1.796396	0.304318	0.003592
 177	8.8000e-02	1.7551	-8.409251	0.000137	1.368683	0.231861	0.002737
 178	8.8500e-02	1.7657	-8.360502	0.000488	4.875933	0.826005	0.009750
 179	8.9000e-02	1.7766	-8.346390	0.000141	1.411454	0.239107	0.002822
 180	8.9500e-02	1.7869	-8.310897	0.000355	3.550021	0.601390	0.007099
 181	9.0000e-02	1.7999	-8.278825	0.000321	3.207850	0.543425	0.006414
 182	9.0500e-02	1.8062	-8.268562	0.000103	1.026512	0.173896	0.002053
 183	9.1000e-02	1.8164	-8.229221	0.000393	3.934963	0.666601	0.007868
 184	9.1500e-02	1.8262	-8.205274	0.000240	2.395195	0.405757	0.004789
 185	9.2000e-02	1.8362	-8.152248	0.000530	5.303646	0.898462	0.010605
 186	9.2500e-02	1.8452	-8.136854	0.000154	1.539768	0.260844	0.003079
 187	9.3000e-02	1.8541	-8.112907	0.000240	2.395195	0.405757	0.004789
 188	9.3500e-02	1.8659	-8.076559	0.000364	3.635564	0.615881	0.007270
 189	9.4000e-02	1.8800	-8.046625	0.000299	2.993994	0.507196	0.005987
 190	9.4500e-02	1.8845	-8.006428	0.000402	4.020506	0.681092	0.008039
 191	9.5000e-02	1.8932	-7.995737	0.000107	1.069283	0.181142	0.002138
 192	9.5500e-02	1.9055	-7.956823	0.000389	3.892192	0.659355	0.007783
 193	9.6000e-02	1.9173	-7.937580	0.000192	1.924710	0.326055	0.003849
 194	9.6500e-02	1.9288	-7.907219	0.000304	3.036765	0.514442	0.006072
 195	9.7000e-02	1.9351	-7.883700	0.000235	2.352424	0.398511	0.004704
 196	9.7500e-02	1.9473	-7.834523	0.000492	4.918704	0.833251	0.009835
 197	9.8000e-02	1.9565	-7.798175	0.000364	3.635564	0.615881	0.007270
 198	9.8500e-02	1.9672	-7.781497	0.000167	1.668082	0.282581	0.003335
 199	9.9000e-02	1.9763	-7.748570	0.000329	3.293393	0.557916	0.006585
 200	9.9500e-02	1.9852	-7.725478	0.000231	2.309652	0.391266	0.004618
 201	1.0000e-01	1.9994	-7.696827	0.000287	2.865680	0.485459	0.005730
 202	1.0050e-01	2.0073	-7.653210	0.000436	4.362676	0.739057	0.008724
 203	1.0100e-01	2.0152	-7.626269	0.000269	2.694594	0.456477	0.005388
 204	1.0150e-01	2.0227	-7.597618	0.000287	2.865680	0.485459	0.005730
 205	1.0200e-01	2.0381	-7.574099	0.000235	2.352424	0.398511	0.004704
 206	1.0250e-01	2.0447	-7.542027	0.000321	3.207850	0.543425	0.006414
 207	1.0300e-01	2.0580	-7.518508	0.000235	2.352424	0.398511	0.004704
 208	1.0350e-01	2.0654	-7.489857	0.000287	2.865680	0.485459	0.005730
 209	1.0400e-01	2.0792	-7.459495	0.000304	3.036765	0.514442	0.006072
 210	1.0450e-01	2.0819	-7.421437	0.000381	3.806649	0.644864	0.007612
 211	1.0500e-01	2.0949	-7.396634	0.000248	2.480738	0.420248	0.004960
 212	1.0550e-01	2.1076	-7.363707	0.000329	3.293393	0.557916	0.006585
 213	1.0600e-01	2.1155	-7.338477	0.000252	2.523509	0.427494	0.005046
 214	1.0650e-01	2.1265	-7.317096	0.000214	2.138567	0.362283	0.004276
 215	1.0700e-01	2.1349	-7.272623	0.000445	4.448219	0.753549	0.008895
 216	1.0750e-01	2.1451	-7.243117	0.000295	2.951222	0.499951	0.005901
 217	1.0800e-01	2.1606	-7.229005	0.000141	1.411454	0.239107	0.002822
 218	1.0850e-01	2.1663	-7.190091	0.000389	3.892192	0.659355	0.007783
 219	1.0900e-01	2.1756	-7.162723	0.000274	2.737366	0.463722	0.005474
 220	1.0950e-01	2.1857	-7.133645	0.000291	2.908451	0.492705	0.005816
 221	1.1000e-01	2.1958	-7.106277	0.000274	2.737366	0.463722	0.005474
 222	1.1050e-01	2.2055	-7.081902	0.000244	2.437966	0.413003	0.004875
 223	1.1100e-01	2.2162	-7.047692	0.000342	3.421707	0.579653	0.006842
 224	1.1150e-01	2.2253	-7.002791	0.000449	4.490990	0.760794	0.008980
 225	1.1200e-01	2.2385	-6.991246	0.000115	1.154826	0.195633	0.002309
 226	1.1250e-01	2.2471	-6.959601	0.000317	3.165079	0.536179	0.006329
 227	1.1300e-01	2.2548	-6.932233	0.000274	2.737366	0.463722	0.005474
 228	1.1350e-01	2.2672	-6.895885	0.000364	3.635564	0.615881	0.007270
 229	1.1400e-01	2.2767	-6.864241	0.000317	3.165079	0.536179	0.006329
 230	1.1450e-01	2.2874	-6.837301	0.000269	2.694594	0.456477	0.005388
 231	1.1500e-01	2.2946	-6.822334	0.000150	1.496997	0.253598	0.002993
 232	1.1550e-01	2.3058	-6.799669	0.000227	2.266881	0.384020	0.004533
 233	1.1600e-01	2.3158	-6.740230	0.000595	5.945216	1.007147	0.011888
 234	1.1650e-01	2.3254	-6.733815	0.000064	0.641570	0.108685	0.001283
 235	1.1700e-01	2.3372	-6.694046	0.000398	3.977734	0.673846	0.007954
 236	1.1750e-01	2.3462	-6.666250	0.000278	2.780137	0.470968	0.005559
 237	1.1800e-01	2.3570	-6.636744	0.000295	2.951222	0.499951	0.005901
 238	1.1850e-01	2.3640	-6.592699	0.000441	4.405448	0.746303	0.008809
 239	1.1900e-01	2.3795	-6.576021	0.000167	1.668082	0.282581	0.003335
 240	1.1950e-01	2.3868	-6.558061	0.000180	1.796396	0.304318	0.003592
 241	1.2000e-01	2.3956	-6.524706	0.000334	3.336164	0.565162	0.006671
 242	1.2050e-01	2.4060	-6.507601	0.000171	1.710854	0.289826	0.003421
 243	1.2100e-01	2.4137	-6.446451	0.000612	6.116301	1.036129	0.012230
 244	1.2150e-01	2.4284	-6.431912	0.000145	1.454225	0.246352	0.002908
 245	1.2200e-01	2.4371	-6.401978	0.000299	2.993994	0.507196	0.005987
 246	1.2250e-01	2.4483	-6.360071	0.000419	4.191591	0.710075	0.008381
 247	1.2300e-01	2.4542	-6.342538	0.000175	1.753625	0.297072	0.003507
 248	1.2350e-01	2.4648	-6.315170	0.000274	2.737366	0.463722	0.005474
 249	1.2400e-01	2.4748	-6.271980	0.000432	4.319905	0.731812	0.008638
 250	1.2450e-01	2.4861	-6.249316	0.000227	2.266881	0.384020	0.004533
 251	1.2500e-01	2.4982	-6.209119	0.000402	4.020506	0.681092	0.008039
 252	1.2550e-01	2.5058	-6.191159	0.000180	1.796396	0.304318	0.003592
 253	1.2600e-01	2.5191	-6.160797	0.000304	3.036765	0.514442	0.006072
 254	1.2650e-01	2.5287	-6.172343	-0.000115	-1.154826	-0.195633	-0.002309
 255	1.2700e-01	2.5349	-6.118462	0.000539	5.389189	0.912953	0.010776
 256	1.2750e-01	2.5453	-6.088529	0.000299	2.993994	0.507196	0.005987
 257	1.2800e-01	2.5568	-6.062444	0.000261	2.609052	0.441985	0.005217
 258	1.2850e-01	2.5641	-6.037214	0.000252	2.523509	0.427494	0.005046
 259	1.2900e-01	2.5753	-5.992313	0.000449	4.490990	0.760794	0.008980
 260	1.2950e-01	2.5854	-5.970504	0.000218	2.181338	0.369529	0.004362
 261	1.3000e-01	2.5934	-5.919189	0.000513	5.132561	0.869479	0.010263
 262	1.3050e-01	2.6056	-5.911492	0.000077	0.769884	0.130422	0.001539
 263	1.3100e-01	2.6157	-5.873861	0.000376	3.763878	0.637618	0.007526
 264	1.3150e-01	2.6260	-5.847348	0.000265	2.651823	0.449231	0.005303
 265	1.3200e-01	2.6352	-5.814421	0.000329	3.293393	0.557916	0.006585
 266	1.3250e-01	2.6465	-5.793467	0.000210	2.095796	0.355037	0.004191
 267	1.3300e-01	2.6540	-5.763106	0.000304	3.036765	0.514442	0.006072
 268	1.3350e-01	2.6654	-5.725475	0.000376	3.763878	0.637618	0.007526
 269	1.3400e-01	2.6755	-5.707942	0.000175	1.753625	0.297072	0.003507
 270	1.3450e-01	2.6849	-5.681002	0.000269	2.694594	0.456477	0.005388
 271	1.3500e-01	2.6956	-5.647647	0.000334	3.336164	0.565162	0.006671
 272	1.3550e-01	2.7068	-5.622417	0.000252	2.523509	0.427494	0.005046
 273	1.3600e-01	2.7142	-5.584358	0.000381	3.806649	0.644864	0.007612
 274	1.3650e-01	2.7278	-5.560411	0.000240	2.395195	0.405757	0.004789
 275	1.3700e-01	2.7359	-5.545017	0.000154	1.539768	0.260844	0.003079
 276	1.3750e-01	2.7460	-5.490281	0.000547	5.474731	0.927445	0.010947
 277	1.3800e-01	2.7577	-5.456071	0.000342	3.421707	0.579653	0.006842
 278	1.3850e-01	2.7661	-5.431269	0.000248	2.480738	0.420248	0.004960
 279	1.3900e-01	2.7774	-5.421006	0.000103	1.026512	0.173896	0.002053
 280	1.3950e-01	2.7863	-5.383375	0.000376	3.763878	0.637618	0.007526
 281	1.4000e-01	2.7966	-5.346171	0.000372	3.721106	0.630372	0.007441
 282	1.4050e-01	2.8043	-5.315382	0.000308	3.079536	0.521688	0.006158
 283	1.4100e-01	2.8142	-5.297422	0.000180	1.796396	0.304318	0.003592
 284	1.4150e-01	2.8256	-5.267061	0.000304	3.036765	0.514442	0.006072
 285	1.4200e-01	2.8345	-5.246962	0.000201	2.010253	0.340546	0.004020
 286	1.4250e-01	2.8448	-5.213607	0.000334	3.336164	0.565162	0.006671
 287	1.4300e-01	2.8514	-5.181108	0.000325	3.250622	0.550670	0.006500
 288	1.4350e-01	2.8685	-5.160154	0.000210	2.095796	0.355037	0.004191
 289	1.4400e-01	2.8766	-5.125944	0.000342	3.421707	0.579653	0.006842
 290	1.4450e-01	2.8833	-5.071208	0.000547	5.474731	0.927445	0.010947
 291	1.4500e-01	2.8961	-5.062228	0.000090	0.898198	0.152159	0.001796
 292	1.4550e-01	2.9059	-5.041274	0.000210	2.095796	0.355037	0.004191
 293	1.4600e-01	2.9197	-5.000222	0.000411	4.106048	0.695583	0.008210
 294	1.4650e-01	2.9256	-4.994236	0.000060	0.598799	0.101439	0.001197
 295	1.4700e-01	2.9361	-4.962591	0.000317	3.165079	0.536179	0.006329
 296	1.4750e-01	2.9468	-4.922395	0.000402	4.020506	0.681092	0.008039
 297	1.4800e-01	2.9559	-4.895882	0.000265	2.651823	0.449231	0.005303
 298	1.4850e-01	2.9672	-4.865520	0.000304	3.036765	0.514442	0.006072
 299	1.4900e-01	2.9762	-4.821903	0.000436	4.362676	0.739057	0.008724
 300	1.4950e-01	2.9843	-4.804798	0.000171	1.710854	0.289826	0.003421
 301	1.5000e-01	2.9977	-4.779568	0.000252	2.523509	0.427494	0.005046
 302	1.5050e-01	3.0048	-4.729536	0.000500	5.004247	0.847742	0.010006
 303	1.5100e-01	3.0193	-4.710292	0.000192	1.924710	0.326055	0.003849
 304	1.5150e-01	3.0270	-4.691049	0.000192	1.924710	0.326055	0.003849
 305	1.5200e-01	3.0368	-4.650852	0.000402	4.020506	0.681092	0.008039
 306	1.5250e-01	3.0446	-4.620063	0.000308	3.079536	0.521688	0.006158
 307	1.5300e-01	3.0550	-4.599110	0.000210	2.095796	0.355037	0.004191
 308	1.5350e-01	3.0664	-4.558058	0.000411	4.106048	0.695583	0.008210
 309	1.5400e-01	3.0744	-4.536677	0.000214	2.138567	0.362283	0.004276
 310	1.5450e-01	3.0852	-4.528552	0.000081	0.812655	0.137668	0.001625
 311	1.5500e-01	3.0988	-4.488355	0.000402	4.020506	0.681092	0.008039
 312	1.5550e-01	3.1073	-4.463125	0.000252	2.523509	0.427494	0.005046
 313	1.5600e-01	3.1192	-4.412238	0.000509	5.089789	0.862234	0.010177
 314	1.5650e-01	3.1250	-4.378883	0.000334	3.336164	0.565162	0.006671
 315	1.5700e-01	3.1360	-4.360923	0.000180	1.796396	0.304318	0.003592
 316	1.5750e-01	3.1474	-4.325002	0.000359	3.592792	0.608636	0.007184
 317	1.5800e-01	3.1558	-4.320298	0.000047	0.470485	0.079702	0.000941
 318	1.5850e-01	3.1668	-4.274542	0.000458	4.576533	0.775286	0.009151
 319	1.5900e-01	3.1749	-4.252733	0.000218	2.181338	0.369529	0.004362
 320	1.5950e-01	3.1863	-4.215958	0.000368	3.678335	0.623127	0.007355
 321	1.6000e-01	3.1967	-4.188590	0.000274	2.737366	0.463722	0.005474
 322	1.6050e-01	3.2059	-4.170629	0.000180	1.796396	0.304318	0.003592
 323	1.6100e-01	3.2147	-4.124446	0.000462	4.619305	0.782531	0.009237
 324	1.6150e-01	3.2269	-4.112900	0.000115	1.154826	0.195633	0.002309
 325	1.6200e-01	3.2376	-4.080828	0.000321	3.207850	0.543425	0.006414
 326	1.6250e-01	3.2452	-4.056881	0.000240	2.395195	0.405757	0.004789
 327	1.6300e-01	3.2535	-4.016684	0.000402	4.020506	0.681092	0.008039
 328	1.6350e-01	3.2645	-3.974777	0.000419	4.191591	0.710075	0.008381
 329	1.6400e-01	3.2759	-3.966652	0.000081	0.812655	0.137668	0.001625
 330	1.6450e-01	3.2840	-3.931159	0.000355	3.550021	0.601390	0.007099
 331	1.6500e-01	3.2941	-3.892673	0.000385	3.849420	0.652109	0.007697
 332	1.6550e-01	3.3060	-3.882410	0.000103	1.026512	0.173896	0.002053
 333	1.6600e-01	3.3173	-3.845206	0.000372	3.721106	0.630372	0.007441
 334	1.6650e-01	3.3264	-3.820404	0.000248	2.480738	0.420248	0.004960
 335	1.6700e-01	3.3386	-3.787049	0.000334	3.336164	0.565162	0.006671
 336	1.6750e-01	3.3478	-3.757116	0.000299	2.993994	0.507196	0.005987
 337	1.6800e-01	3.3591	-3.724616	0.000325	3.250622	0.550670	0.006500
 338	1.6850e-01	3.3649	-3.694682	0.000299	2.993994	0.507196	0.005987
 339	1.6900e-01	3.3759	-3.672446	0.000222	2.224110	0.376774	0.004447
 340	1.6950e-01	3.3876	-3.629683	0.000428	4.277134	0.724566	0.008553
 341	1.7000e-01	3.3966	-3.614716	0.000150	1.496997	0.253598	0.002993
 342	1.7050e-01	3.4094	-3.581789	0.000329	3.293393	0.557916	0.006585
 343	1.7100e-01	3.4161	-3.547152	0.000346	3.464478	0.586899	0.006928
 344	1.7150e-01	3.4247	-3.545014	0.000021	0.213857	0.036228	0.000428
 345	1.7200e-01	3.4366	-3.499685	0.000453	4.533762	0.768040	0.009066
 346	1.7250e-01	3.4460	-3.452219	0.000475	4.747619	0.804268	0.009493
 347	1.7300e-01	3.4554	-3.439818	0.000124	1.240369	0.210124	0.002480
 348	1.7350e-01	3.4656	-3.423568	0.000163	1.625311	0.275335	0.003250
 349	1.7400e-01	3.4729	-3.376957	0.000466	4.662076	0.789777	0.009322
 350	1.7450e-01	3.4873	-3.353865	0.000231	2.309652	0.391266	0.004618
 351	1.7500e-01	3.4976	-3.329063	0.000248	2.480738	0.420248	0.004960
 352	1.7550e-01	3.5062	-3.298701	0.000304	3.036765	0.514442	0.006072
 353	1.7600e-01	3.5144	-3.268340	0.000304	3.036765	0.514442	0.006072
 354	1.7650e-01	3.5248	-3.232847	0.000355	3.550021	0.601390	0.007099
 355	1.7700e-01	3.5349	-3.207190	0.000257	2.566280	0.434740	0.005132
 356	1.7750e-01	3.5455	-3.185381	0.000218	2.181338	0.369529	0.004362
 357	1.7800e-01	3.5556	-3.152881	0.000325	3.250622	0.550670	0.006500
 358	1.7850e-01	3.5661	-3.133210	0.000197	1.967482	0.333300	0.003934
 359	1.7900e-01	3.5741	-3.104987	0.000282	2.822908	0.478214	0.005645
 360	1.7950e-01	3.5864	-3.061797	0.000432	4.319905	0.731812	0.008638
 361	1.8000e-01	3.5947	-3.032291	0.000295	2.951222	0.499951	0.005901
 362	1.8050e-01	3.6035	-3.006633	0.000257	2.566280	0.434740	0.005132
 363	1.8100e-01	3.6191	-2.978410	0.000282	2.822908	0.478214	0.005645
 364	1.8150e-01	3.6275	-2.961305	0.000171	1.710854	0.289826	0.003421
 365	1.8200e-01	3.6349	-2.915549	0.000458	4.576533	0.775286	0.009151
 366	1.8250e-01	3.6469	-2.906141	0.000094	0.940969	0.159405	0.001882
 367	1.8300e-01	3.6548	-2.863806	0.000423	4.234362	0.717320	0.008467
 368	1.8350e-01	3.6642	-2.837721	0.000261	2.609052	0.441985	0.005217
 369	1.8400e-01	3.6737	-2.809070	0.000287	2.865680	0.485459	0.005730
 370	1.8450e-01	3.6866	-2.777854	0.000312	3.122308	0.528933	0.006243
 371	1.8500e-01	3.6960	-2.752196	0.000257	2.566280	0.434740	0.005132
 372	1.8550e-01	3.7073	-2.734236	0.000180	1.796396	0.304318	0.003592
 373	1.8600e-01	3.7164	-2.690191	0.000441	4.405448	0.746303	0.008809
 374	1.8650e-01	3.7267	-2.655553	0.000346	3.464478	0.586899	0.006928
 375	1.8700e-01	3.7363	-2.634172	0.000214	2.138567	0.362283	0.004276
 376	1.8750e-01	3.7488	-2.620488	0.000137	1.368683	0.231861	0.002737
 377	1.8800e-01	3.7573	-2.567035	0.000535	5.346417	0.905708	0.010691
 378	1.8850e-01	3.7677	-2.557199	0.000098	0.983741	0.166650	0.001967
 379	1.8900e-01	3.7781	-2.519568	0.000376	3.763878	0.637618	0.007526
 380	1.8950e-01	3.7872	-2.502891	0.000167	1.668082	0.282581	0.003335
 381	1.9000e-01	3.7958	-2.462266	0.000406	4.063277	0.688338	0.008125
 382	1.9050e-01	3.8055	-2.443451	0.000188	1.881939	0.318809	0.003763
 383	1.9100e-01	3.8159	-2.411807	0.000317	3.165079	0.536179	0.006329
 384	1.9150e-01	3.8258	-2.374603	0.000372	3.721106	0.630372	0.007441
 385	1.9200e-01	3.8373	-2.355788	0.000188	1.881939	0.318809	0.003763
 386	1.9250e-01	3.8460	-2.315591	0.000402	4.020506	0.681092	0.008039
 387	1.9300e-01	3.8553	-2.305755	0.000098	0.983741	0.166650	0.001967
 388	1.9350e-01	3.8673	-2.272401	0.000334	3.336164	0.565162	0.006671
 389	1.9400e-01	3.8734	-2.227500	0.000449	4.490990	0.760794	0.008980
 390	1.9450e-01	3.8837	-2.207402	0.000201	2.010253	0.340546	0.004020
 391	1.9500e-01	3.8992	-2.179178	0.000282	2.822908	0.478214	0.005645
 392	1.9550e-01	3.9038	-2.157370	0.000218	2.181338	0.369529	0.004362
 393	1.9600e-01	3.9203	-2.126580	0.000308	3.079536	0.521688	0.006158
 394	1.9650e-01	3.9252	-2.089377	0.000372	3.721106	0.630372	0.007441
 395	1.9700e-01	3.9371	-2.071844	0.000175	1.753625	0.297072	0.003507
 396	1.9750e-01	3.9484	-2.041055	0.000308	3.079536	0.521688	0.006158
 397	1.9800e-01	3.9552	-2.022668	0.000184	1.839168	0.311563	0.003678
 398	1.9850e-01	3.9655	-1.979905	0.000428	4.277134	0.724566	0.008553
 399	1.9900e-01	3.9740	-1.951682	0.000282	2.822908	0.478214	0.005645
 400	1.9950e-01	3.9890	-1.926452	0.000252	2.523509	0.427494	0.005046
 401	2.0000e-01	3.9957	-1.898229	0.000282	2.822908	0.478214	0.005645
 402	2.0050e-01	4.0039	-1.863163	0.000351	3.507250	0.594144	0.007013
 403	2.0100e-01	4.0179	-1.837506	0.000257	2.566280	0.434740	0.005132
 404	2.0150e-01	4.0266	-1.810565	0.000269	2.694594	0.456477	0.005388
 405	2.0200e-01	4.0369	-1.774645	0.000359	3.592792	0.608636	0.007184
 406	2.0250e-01	4.0479	-1.757112	0.000175	1.753625	0.297072	0.003507
 407	2.0300e-01	4.0585	-1.713067	0.000441	4.405448	0.746303	0.008809
 408	2.0350e-01	4.0668	-1.695962	0.000171	1.710854	0.289826	0.003421
 409	2.0400e-01	4.0768	-1.666028	0.000299	2.993994	0.507196	0.005987
 410	2.0450e-01	4.0891	-1.641653	0.000244	2.437966	0.413003	0.004875
 411	2.0500e-01	4.0961	-1.618134	0.000235	2.352424	0.398511	0.004704
 412	2.0550e-01	4.1068	-1.580931	0.000372	3.721106	0.630372	0.007441
 413	2.0600e-01	4.1205	-1.559549	0.000214	2.138567	0.362283	0.004276
 414	2.0650e-01	4.1292	-1.529616	0.000299	2.993994	0.507196	0.005987
 415	2.0700e-01	4.1373	-1.499682	0.000299	2.993994	0.507196	0.005987
 416	2.0750e-01	4.1449	-1.474024	0.000257	2.566280	0.434740	0.005132
 417	2.0800e-01	4.1573	-1.435966	0.000381	3.806649	0.644864	0.007612
 418	2.0850e-01	4.1656	-1.405604	0.000304	3.036765	0.514442	0.006072
 419	2.0900e-01	4.1751	-1.390637	0.000150	1.496997	0.253598	0.002993
 420	2.0950e-01	4.1885	-1.371822	0.000188	1.881939	0.318809	0.003763
 421	2.1000e-01	4.1963	-1.328632	0.000432	4.319905	0.731812	0.008638
 422	2.1050e-01	4.2047	-1.281165	0.000475	4.747619	0.804268	0.009493
 423	2.1100e-01	4.2141	-1.261495	0.000197	1.967482	0.333300	0.003934
 424	2.1150e-01	4.2276	-1.241824	0.000197	1.967482	0.333300	0.003934
 425	2.1200e-01	4.2365	-1.207614	0.000342	3.421707	0.579653	0.006842
 426	2.1250e-01	4.2451	-1.180673	0.000269	2.694594	0.456477	0.005388
 427	2.1300e-01	4.2561	-1.148601	0.000321	3.207850	0.543425	0.006414
 428	2.1350e-01	4.2676	-1.140477	0.000081	0.812655	0.137668	0.001625
 429	2.1400e-01	4.2773	-1.106694	0.000338	3.378936	0.572407	0.006756
 430	2.1450e-01	4.2859	-1.071201	0.000355	3.550021	0.601390	0.007099
 431	2.1500e-01	4.2963	-1.061794	0.000094	0.940969	0.159405	0.001882
 432	2.1550e-01	4.3063	-1.014755	0.000470	4.704847	0.797023	0.009408
 433	2.1600e-01	4.3164	-0.979262	0.000355	3.550021	0.601390	0.007099
 434	2.1650e-01	4.3258	-0.957025	0.000222	2.224110	0.376774	0.004447
 435	2.1700e-01	4.3350	-0.935216	0.000218	2.181338	0.369529	0.004362
 436	2.1750e-01	4.3491	-0.904427	0.000308	3.079536	0.521688	0.006158
 437	2.1800e-01	4.3585	-0.863375	0.000411	4.106048	0.695583	0.008210
 438	2.1850e-01	4.3674	-0.838146	0.000252	2.523509	0.427494	0.005046
 439	2.1900e-01	4.3762	-0.835152	0.000030	0.299399	0.050720	0.000599
 440	2.1950e-01	4.3864	-0.787686	0.000475	4.747619	0.804268	0.009493
 441	2.2000e-01	4.3982	-0.759890	0.000278	2.780137	0.470968	0.005559
 442	2.2050e-01	4.4073	-0.743640	0.000163	1.625311	0.275335	0.003250
 443	2.2100e-01	4.4165	-0.706437	0.000372	3.721106	0.630372	0.007441
 444	2.2150e-01	4.4269	-0.673510	0.000329	3.293393	0.557916	0.006585
 445	2.2200e-01	4.4348	-0.638017	0.000355	3.550021	0.601390	0.007099
 446	2.2250e-01	4.4489	-0.629037	0.000090	0.898198	0.152159	0.001796
 447	2.2300e-01	4.4592	-0.595682	0.000334	3.336164	0.565162	0.006671
 448	2.2350e-01	4.4661	-0.576439	0.000192	1.924710	0.326055	0.003849
 449	2.2400e-01	4.4765	-0.530255	0.000462	4.619305	0.782531	0.009237
 450	2.2450e-01	4.4897	-0.502460	0.000278	2.780137	0.470968	0.005559
 451	2.2500e-01	4.4971	-0.486638	0.000158	1.582540	0.268089	0.003164
 452	2.2550e-01	4.5062	-0.450717	0.000359	3.592792	0.608636	0.007184
 453	2.2600e-01	4.5178	-0.431046	0.000197	1.967482	0.333300	0.003934
 454	2.2650e-01	4.5267	-0.391705	0.000393	3.934963	0.666601	0.007868
 455	2.2700e-01	4.5355	-0.369896	0.000218	2.181338	0.369529	0.004362
 456	2.2750e-01	4.5471	-0.336969	0.000329	3.293393	0.557916	0.006585
 457	2.2800e-01	4.5581	-0.332692	0.000043	0.427713	0.072457	0.000855
 458	2.2850e-01	4.5667	-0.289502	0.000432	4.319905	0.731812	0.008638
 459	2.2900e-01	4.5752	-0.260851	0.000287	2.865680	0.485459	0.005730
 460	2.2950e-01	4.5871	-0.219372	0.000415	4.148820	0.702829	0.008296
 461	2.3000e-01	4.5966	-0.204833	0.000145	1.454225	0.246352	0.002908
 462	2.3050e-01	4.6069	-0.168484	0.000364	3.635564	0.615881	0.007270
 463	2.3100e-01	4.6152	-0.138123	0.000304	3.036765	0.514442	0.006072
 464	2.3150e-01	4.6298	-0.129998	0.000081	0.812655	0.137668	0.001625
 465	2.3200e-01	4.6350	-0.086380	0.000436	4.362676	0.739057	0.008724
 466	2.3250e-01	4.6463	-0.059012	0.000274	2.737366	0.463722	0.005474
 467	2.3300e-01	4.6548	-0.042763	0.000163	1.625311	0.275335	0.003250
 468	2.3350e-01	4.6683	-0.009408	0.000334	3.336164	0.565162	0.006671
 469	2.3400e-01	4.6775	0.029934	0.000393	3.934963	0.666601	0.007868
 470	2.3450e-01	4.6875	0.058585	0.000287	2.865680	0.485459	0.005730
 471	2.3500e-01	4.6960	0.073124	0.000145	1.454225	0.246352	0.002908
 472	2.3550e-01	4.7063	0.108189	0.000351	3.507250	0.594144	0.007013
 473	2.3600e-01	4.7153	0.121873	0.000137	1.368683	0.231861	0.002737
 474	2.3650e-01	4.7275	0.162925	0.000411	4.106048	0.695583	0.008210
 475	2.3700e-01	4.7377	0.197135	0.000342	3.421707	0.579653	0.006842
 476	2.3750e-01	4.7473	0.223220	0.000261	2.609052	0.441985	0.005217
 477	2.3800e-01	4.7577	0.252727	0.000295	2.951222	0.499951	0.005901
 478	2.3850e-01	4.7681	0.280522	0.000278	2.780137	0.470968	0.005559
 479	2.3900e-01	4.7794	0.293351	0.000128	1.283140	0.217370	0.002566
 480	2.3950e-01	4.7900	0.318153	0.000248	2.480738	0.420248	0.004960
 481	2.4000e-01	4.7974	0.354074	0.000359	3.592792	0.608636	0.007184
 482	2.4050e-01	4.8056	0.380159	0.000261	2.609052	0.441985	0.005217
 483	2.4100e-01	4.8176	0.432757	0.000526	5.260875	0.891216	0.010520
 484	2.4150e-01	4.8282	0.444303	0.000115	1.154826	0.195633	0.002309
 485	2.4200e-01	4.8370	0.459697	0.000154	1.539768	0.260844	0.003079
 486	2.4250e-01	4.8489	0.475947	0.000163	1.625311	0.275335	0.003250
 487	2.4300e-01	4.8593	0.526407	0.000505	5.047018	0.854988	0.010092
 488	2.4350e-01	4.8688	0.537525	0.000111	1.112055	0.188387	0.002224
 489	2.4400e-01	4.8779	0.570452	0.000329	3.293393	0.557916	0.006585
 490	2.4450e-01	4.8907	0.612787	0.000423	4.234362	0.717320	0.008467
 491	2.4500e-01	4.8950	0.637162	0.000244	2.437966	0.413003	0.004875
 492	2.4550e-01	4.9068	0.665813	0.000287	2.865680	0.485459	0.005730
 493	2.4600e-01	4.9170	0.697029	0.000312	3.122308	0.528933	0.006243
 494	2.4650e-01	4.9265	0.699595	0.000026	0.256628	0.043474	0.000513
 495	2.4700e-01	4.9353	0.742785	0.000432	4.319905	0.731812	0.008638
 496	2.4750e-01	4.9445	0.778278	0.000355	3.550021	0.601390	0.007099
 497	2.4800e-01	4.9603	0.808212	0.000299	2.993994	0.507196	0.005987
 498	2.4850e-01	4.9664	0.835152	0.000269	2.694594	0.456477	0.005388
 499	2.4900e-01	4.9756	0.853968	0.000188	1.881939	0.318809	0.003763
 500	2.4950e-01	4.9886	0.886467	0.000325	3.250622	0.550670	0.006500
 501	2.5000e-01	4.9969	0.918967	0.000325	3.250622	0.550670	0.006500
 502	2.5050e-01	5.0061	0.954460	0.000355	3.550021	0.601390	0.007099
 503	2.5100e-01	5.0171	0.972420	0.000180	1.796396	0.304318	0.003592
 504	2.5150e-01	5.0262	0.989525	0.000171	1.710854	0.289826	0.003421
 505	2.5200e-01	5.0403	1.033570	0.000441	4.405448	0.746303	0.008809
 506	2.5250e-01	5.0488	1.024590	-0.000090	-0.898198	-0.152159	-0.001796
 507	2.5300e-01	5.0575	1.068636	0.000441	4.405448	0.746303	0.008809
 508	2.5350e-01	5.0671	1.096859	0.000282	2.822908	0.478214	0.005645
 509	2.5400e-01	5.0775	1.130214	0.000334	3.336164	0.565162	0.006671
 510	2.5450e-01	5.0870	1.173404	0.000432	4.319905	0.731812	0.008638
 511	2.5500e-01	5.0992	1.206759	0.000334	3.336164	0.565162	0.006671
 512	2.5550e-01	5.1093	1.203765	-0.000030	-0.299399	-0.050720	-0.000599
 513	2.5600e-01	5.1154	1.260639	0.000569	5.688588	0.963673	0.011375
 514	2.5650e-01	5.1294	1.280738	0.000201	2.010253	0.340546	0.004020
 515	2.5700e-01	5.1382	1.299126	0.000184	1.839168	0.311563	0.003678
 516	2.5750e-01	5.1477	1.319652	0.000205	2.053024	0.347792	0.004105
 517	2.5800e-01	5.1585	1.359421	0.000398	3.977734	0.673846	0.007954
 518	2.5850e-01	5.1666	1.389355	0.000299	2.993994	0.507196	0.005987
 519	2.5900e-01	5.1723	1.401328	0.000120	1.197597	0.202879	0.002395
 520	2.5950e-01	5.1843	1.452215	0.000509	5.089789	0.862234	0.010177
 521	2.6000e-01	5.1968	1.473597	0.000214	2.138567	0.362283	0.004276
 522	2.6050e-01	5.2075	1.481294	0.000077	0.769884	0.130422	0.001539
 523	2.6100e-01	5.2130	1.543727	0.000624	6.244615	1.057866	0.012487
 524	2.6150e-01	5.2271	1.556984	0.000133	1.325911	0.224615	0.002651
 525	2.6200e-01	5.2376	1.564681	0.000077	0.769884	0.130422	0.001539
 526	2.6250e-01	5.2441	1.602312	0.000376	3.763878	0.637618	0.007526
 527	2.6300e-01	5.2563	1.630963	0.000287	2.865680	0.485459	0.005730
 528	2.6350e-01	5.2673	1.645074	0.000141	1.411454	0.239107	0.002822
 529	2.6400e-01	5.2740	1.692968	0.000479	4.790390	0.811514	0.009579
 530	2.6450e-01	5.2881	1.708363	0.000154	1.539768	0.260844	0.003079
 531	2.6500e-01	5.2957	1.731882	0.000235	2.352424	0.398511	0.004704
 532	2.6550e-01	5.3076	1.775500	0.000436	4.362676	0.739057	0.008724
 533	2.6600e-01	5.3156	1.789612	0.000141	1.411454	0.239107	0.002822
 534	2.6650e-01	5.3255	1.831519	0.000419	4.191591	0.710075	0.008381
 535	2.6700e-01	5.3348	1.855466	0.000240	2.395195	0.405757	0.004789
 536	2.6750e-01	5.3461	1.884117	0.000287	2.865680	0.485459	0.005730
 537	2.6800e-01	5.3558	1.901222	0.000171	1.710854	0.289826	0.003421
 538	2.6850e-01	5.3650	1.957241	0.000560	5.603045	0.949182	0.011204
 539	2.6900e-01	5.3745	1.958096	0.000009	0.085543	0.014491	0.000171
 540	2.6950e-01	5.3851	1.982471	0.000244	2.437966	0.413003	0.004875
 541	2.7000e-01	5.3955	2.024378	0.000419	4.191591	0.710075	0.008381
 542	2.7050e-01	5.4050	2.040628	0.000163	1.625311	0.275335	0.003250
 543	2.7100e-01	5.4150	2.077831	0.000372	3.721106	0.630372	0.007441
 544	2.7150e-01	5.4266	2.082963	0.000051	0.513256	0.086948	0.001026
 545	2.7200e-01	5.4364	2.137271	0.000543	5.431960	0.920199	0.010862
 546	2.7250e-01	5.4477	2.151383	0.000141	1.411454	0.239107	0.002822
 547	2.7300e-01	5.4572	2.166350	0.000150	1.496997	0.253598	0.002993
 548	2.7350e-01	5.4675	2.215527	0.000492	4.918704	0.833251	0.009835
 549	2.7400e-01	5.4742	2.228355	0.000128	1.283140	0.217370	0.002566
 550	2.7450e-01	5.4860	2.269835	0.000415	4.148820	0.702829	0.008296
 551	2.7500e-01	5.4974	2.284802	0.000150	1.496997	0.253598	0.002993
 552	2.7550e-01	5.5048	2.322005	0.000372	3.721106	0.630372	0.007441
 553	2.7600e-01	5.5157	2.339110	0.000171	1.710854	0.289826	0.003421
 554	2.7650e-01	5.5267	2.369472	0.000304	3.036765	0.514442	0.006072
 555	2.7700e-01	5.5374	2.407530	0.000381	3.806649	0.644864	0.007612
 556	2.7750e-01	5.5463	2.418649	0.000111	1.112055	0.188387	0.002224
 557	2.7800e-01	5.5585	2.456707	0.000381	3.806649	0.644864	0.007612
 558	2.7850e-01	5.5646	2.489207	0.000325	3.250622	0.550670	0.006500
 559	2.7900e-01	5.5774	2.508022	0.000188	1.881939	0.318809	0.003763
 560	2.7950e-01	5.5890	2.522134	0.000141	1.411454	0.239107	0.002822
 561	2.8000e-01	5.5978	2.539667	0.000175	1.753625	0.297072	0.003507
 562	2.8050e-01	5.6070	2.584995	0.000453	4.533762	0.768040	0.009066
 563	2.8100e-01	5.6149	2.614501	0.000295	2.951222	0.499951	0.005901
 564	2.8150e-01	5.6241	2.641441	0.000269	2.694594	0.456477	0.005388
 565	2.8200e-01	5.6375	2.668382	0.000269	2.694594	0.456477	0.005388
 566	2.8250e-01	5.6479	2.688052	0.000197	1.967482	0.333300	0.003934
 567	2.8300e-01	5.6555	2.716276	0.000282	2.822908	0.478214	0.005645
 568	2.8350e-01	5.6665	2.752624	0.000364	3.635564	0.615881	0.007270
 569	2.8400e-01	5.6781	2.758611	0.000060	0.598799	0.101439	0.001197
 570	2.8450e-01	5.6862	2.787262	0.000287	2.865680	0.485459	0.005730
 571	2.8500e-01	5.6961	2.833445	0.000462	4.619305	0.782531	0.009237
 572	2.8550e-01	5.7053	2.854399	0.000210	2.095796	0.355037	0.004191
 573	2.8600e-01	5.7159	2.881767	0.000274	2.737366	0.463722	0.005474
 574	2.8650e-01	5.7275	2.909990	0.000282	2.822908	0.478214	0.005645
 575	2.8700e-01	5.7352	2.931371	0.000214	2.138567	0.362283	0.004276
 576	2.8750e-01	5.7474	2.957884	0.000265	2.651823	0.449231	0.005303
 577	2.8800e-01	5.7574	3.003212	0.000453	4.533762	0.768040	0.009066
 578	2.8850e-01	5.7654	3.010910	0.000077	0.769884	0.130422	0.001539
 579	2.8900e-01	5.7730	3.058376	0.000475	4.747619	0.804268	0.009493
 580	2.8950e-01	5.7843	3.093441	0.000351	3.507250	0.594144	0.007013
 581	2.9000e-01	5.7966	3.094296	0.000009	0.085543	0.014491	0.000171
 582	2.9050e-01	5.8075	3.125941	0.000317	3.165079	0.536179	0.006329
 583	2.9100e-01	5.8154	3.159723	0.000338	3.378936	0.572407	0.006756
 584	2.9150e-01	5.8264	3.186236	0.000265	2.651823	0.449231	0.005303
 585	2.9200e-01	5.8374	3.209328	0.000231	2.309652	0.391266	0.004618
 586	2.9250e-01	5.8453	3.231992	0.000227	2.266881	0.384020	0.004533
 587	2.9300e-01	5.8569	3.258077	0.000261	2.609052	0.441985	0.005217
 588	2.9350e-01	5.8658	3.289721	0.000317	3.165079	0.536179	0.006329
 589	2.9400e-01	5.8771	3.319655	0.000299	2.993994	0.507196	0.005987
 590	2.9450e-01	5.8844	3.347878	0.000282	2.822908	0.478214	0.005645
 591	2.9500e-01	5.8972	3.383371	0.000355	3.550021	0.601390	0.007099
 592	2.9550e-01	5.9070	3.406035	0.000227	2.266881	0.384020	0.004533
 593	2.9600e-01	5.9158	3.427417	0.000214	2.138567	0.362283	0.004276
 594	2.9650e-01	5.9271	3.435969	0.000086	0.855427	0.144913	0.001711
 595	2.9700e-01	5.9363	3.471890	0.000359	3.592792	0.608636	0.007184
 596	2.9750e-01	5.9438	3.509948	0.000381	3.806649	0.644864	0.007612
 597	2.9800e-01	5.9558	3.533895	0.000240	2.395195	0.405757	0.004789
 598	2.9850e-01	5.9671	3.550145	0.000163	1.625311	0.275335	0.003250
 599	2.9900e-01	5.9790	3.587348	0.000372	3.721106	0.630372	0.007441
 600	2.9950e-01	5.9900	3.611723	0.000244	2.437966	0.413003	0.004875
 601	3.0000e-01	5.9955	3.633104	0.000214	2.138567	0.362283	0.004276
 602	3.0050e-01	6.0052	3.683564	0.000505	5.047018	0.854988	0.010092
 603	3.0100e-01	6.0138	3.702807	0.000192	1.924710	0.326055	0.003849
 604	3.0150e-01	6.0266	3.740011	0.000372	3.721106	0.630372	0.007441
 605	3.0200e-01	6.0362	3.748136	0.000081	0.812655	0.137668	0.001625
 606	3.0250e-01	6.0507	3.768662	0.000205	2.053024	0.347792	0.004105
 607	3.0300e-01	6.0568	3.788332	0.000197	1.967482	0.333300	0.003934
 608	3.0350e-01	6.0652	3.824680	0.000364	3.635564	0.615881	0.007270
 609	3.0400e-01	6.0764	3.853331	0.000287	2.865680	0.485459	0.005730
 610	3.0450e-01	6.0846	3.877278	0.000240	2.395195	0.405757	0.004789
 611	3.0500e-01	6.0956	3.900370	0.000231	2.309652	0.391266	0.004618
 612	3.0550e-01	6.1084	3.915765	0.000154	1.539768	0.260844	0.003079
 613	3.0600e-01	6.1169	3.949119	0.000334	3.336164	0.565162	0.006671
 614	3.0650e-01	6.1261	3.970501	0.000214	2.138567	0.362283	0.004276
 615	3.0700e-01	6.1386	4.014974	0.000445	4.448219	0.753549	0.008895
 616	3.0750e-01	6.1456	4.029513	0.000145	1.454225	0.246352	0.002908
 617	3.0800e-01	6.1566	4.068427	0.000389	3.892192	0.659355	0.007783
 618	3.0850e-01	6.1694	4.089808	0.000214	2.138567	0.362283	0.004276
 619	3.0900e-01	6.1758	4.112472	0.000227	2.266881	0.384020	0.004533
 620	3.0950e-01	6.1853	4.142834	0.000304	3.036765	0.514442	0.006072
 621	3.1000e-01	6.1975	4.162077	0.000192	1.924710	0.326055	0.003849
 622	3.1050e-01	6.2079	4.202274	0.000402	4.020506	0.681092	0.008039
 623	3.1100e-01	6.2167	4.230497	0.000282	2.822908	0.478214	0.005645
 624	3.1150e-01	6.2286	4.239905	0.000094	0.940969	0.159405	0.001882
 625	3.1200e-01	6.2356	4.276680	0.000368	3.678335	0.623127	0.007355
 626	3.1250e-01	6.2448	4.307469	0.000308	3.079536	0.521688	0.006158
 627	3.1300e-01	6.2564	4.324147	0.000167	1.668082	0.282581	0.003335
 628	3.1350e-01	6.2640	4.354081	0.000299	2.993994	0.507196	0.005987
 629	3.1400e-01	6.2756	4.379310	0.000252	2.523509	0.427494	0.005046
 630	3.1450e-01	6.2897	4.418224	0.000389	3.892192	0.659355	0.007783
 631	3.1500e-01	6.2970	4.442171	0.000240	2.395195	0.405757	0.004789
 632	3.1550e-01	6.3080	4.449441	0.000073	0.727113	0.123176	0.001454
 633	3.1600e-01	6.3147	4.486217	0.000368	3.678335	0.623127	0.007355
 634	3.1650e-01	6.3257	4.530262	0.000441	4.405448	0.746303	0.008809
 635	3.1700e-01	6.3356	4.552926	0.000227	2.266881	0.384020	0.004533
 636	3.1750e-01	6.3458	4.564472	0.000115	1.154826	0.195633	0.002309
 637	3.1800e-01	6.3565	4.588847	0.000244	2.437966	0.413003	0.004875
 638	3.1850e-01	6.3669	4.615360	0.000265	2.651823	0.449231	0.005303
 639	3.1900e-01	6.3770	4.629899	0.000145	1.454225	0.246352	0.002908
 640	3.1950e-01	6.3870	4.679503	0.000496	4.961475	0.840497	0.009921
 641	3.2000e-01	6.3977	4.692760	0.000133	1.325911	0.224615	0.002651
 642	3.2050e-01	6.4063	4.729536	0.000368	3.678335	0.623127	0.007355
 643	3.2100e-01	6.4148	4.765884	0.000364	3.635564	0.615881	0.007270
 644	3.2150e-01	6.4229	4.776574	0.000107	1.069283	0.181142	0.002138
 645	3.2200e-01	6.4351	4.810357	0.000338	3.378936	0.572407	0.006756
 646	3.2250e-01	6.4465	4.840290	0.000299	2.993994	0.507196	0.005987
 647	3.2300e-01	6.4569	4.870224	0.000299	2.993994	0.507196	0.005987
 648	3.2350e-01	6.4667	4.886902	0.000167	1.668082	0.282581	0.003335
 649	3.2400e-01	6.4764	4.909138	0.000222	2.224110	0.376774	0.004447
 650	3.2450e-01	6.4868	4.938644	0.000295	2.951222	0.499951	0.005901
 651	3.2500e-01	6.4972	4.960026	0.000214	2.138567	0.362283	0.004276
 652	3.2550e-01	6.5088	4.988249	0.000282	2.822908	0.478214	0.005645
 653	3.2600e-01	6.5198	5.015189	0.000269	2.694594	0.456477	0.005388
 654	3.2650e-01	6.5247	5.031439	0.000163	1.625311	0.275335	0.003250
 655	3.2700e-01	6.5369	5.051537	0.000201	2.010253	0.340546	0.004020
 656	3.2750e-01	6.5466	5.096438	0.000449	4.490990	0.760794	0.008980
 657	3.2800e-01	6.5570	5.116109	0.000197	1.967482	0.333300	0.003934
 658	3.2850e-01	6.5656	5.140056	0.000240	2.395195	0.405757	0.004789
 659	3.2900e-01	6.5759	5.182391	0.000423	4.234362	0.717320	0.008467
 660	3.2950e-01	6.5872	5.190516	0.000081	0.812655	0.137668	0.001625
 661	3.3000e-01	6.6000	5.225153	0.000346	3.464478	0.586899	0.006928
 662	3.3050e-01	6.6058	5.243969	0.000188	1.881939	0.318809	0.003763
 663	3.3100e-01	6.6156	5.278606	0.000346	3.464478	0.586899	0.006928
 664	3.3150e-01	6.6254	5.303836	0.000252	2.523509	0.427494	0.005046
 665	3.3200e-01	6.6339	5.349165	0.000453	4.533762	0.768040	0.009066
 666	3.3250e-01	6.6504	5.355579	0.000064	0.641570	0.108685	0.001283
 667	3.3300e-01	6.6574	5.368835	0.000133	1.325911	0.224615	0.002651
 668	3.3350e-01	6.6623	5.397486	0.000287	2.865680	0.485459	0.005730
 669	3.3400e-01	6.6766	5.430413	0.000329	3.293393	0.557916	0.006585
 670	3.3450e-01	6.6858	5.460775	0.000304	3.036765	0.514442	0.006072
 671	3.3500e-01	6.6977	5.483867	0.000231	2.309652	0.391266	0.004618
 672	3.3550e-01	6.7065	5.497123	0.000133	1.325911	0.224615	0.002651
 673	3.3600e-01	6.7151	5.553997	0.000569	5.688588	0.963673	0.011375
 674	3.3650e-01	6.7261	5.558273	0.000043	0.427713	0.072457	0.000855
 675	3.3700e-01	6.7371	5.580937	0.000227	2.266881	0.384020	0.004533
 676	3.3750e-01	6.7471	5.619851	0.000389	3.892192	0.659355	0.007783
 677	3.3800e-01	6.7603	5.631825	0.000120	1.197597	0.202879	0.002395
 678	3.3850e-01	6.7642	5.683568	0.000518	5.175332	0.876725	0.010349
 679	3.3900e-01	6.7769	5.700673	0.000171	1.710854	0.289826	0.003421
 680	3.3950e-01	6.7877	5.719916	0.000192	1.924710	0.326055	0.003849
 681	3.4000e-01	6.7969	5.742152	0.000222	2.224110	0.376774	0.004447
 682	3.4050e-01	6.8085	5.769520	0.000274	2.737366	0.463722	0.005474
 683	3.4100e-01	6.8149	5.809289	0.000398	3.977734	0.673846	0.007954
 684	3.4150e-01	6.8268	5.828105	0.000188	1.881939	0.318809	0.003763
 685	3.4200e-01	6.8341	5.852052	0.000240	2.395195	0.405757	0.004789
 686	3.4250e-01	6.8469	5.869585	0.000175	1.753625	0.297072	0.003507
 687	3.4300e-01	6.8573	5.915768	0.000462	4.619305	0.782531	0.009237
 688	3.4350e-01	6.8677	5.929024	0.000133	1.325911	0.224615	0.002651
 689	3.4400e-01	6.8768	5.946557	0.000175	1.753625	0.297072	0.003507
 690	3.4450e-01	6.8854	5.979912	0.000334	3.336164	0.565162	0.006671
 691	3.4500e-01	6.8945	5.993168	0.000133	1.325911	0.224615	0.002651
 692	3.4550e-01	6.9058	6.031227	0.000381	3.806649	0.644864	0.007612
 693	3.4600e-01	6.9147	6.059023	0.000278	2.780137	0.470968	0.005559
 694	3.4650e-01	6.9254	6.084680	0.000257	2.566280	0.434740	0.005132
 695	3.4700e-01	6.9379	6.087246	0.000026	0.256628	0.043474	0.000513
 696	3.4750e-01	6.9452	6.140271	0.000530	5.303646	0.898462	0.010605
 697	3.4800e-01	6.9580	6.155666	0.000154	1.539768	0.260844	0.003079
 698	3.4850e-01	6.9684	6.181323	0.000257	2.566280	0.434740	0.005132
 699	3.4900e-01	6.9763	6.206981	0.000257	2.566280	0.434740	0.005132
 700	3.4950e-01	6.9897	6.226652	0.000197	1.967482	0.333300	0.003934
 701	3.5000e-01	6.9978	6.251026	0.000244	2.437966	0.413003	0.004875
 702	3.5050e-01	7.0068	6.265993	0.000150	1.496997	0.253598	0.002993
 703	3.5100e-01	7.0166	6.305335	0.000393	3.934963	0.666601	0.007868
 704	3.5150e-01	7.0270	6.346814	0.000415	4.148820	0.702829	0.008296
 705	3.5200e-01	7.0380	6.358788	0.000120	1.197597	0.202879	0.002395
 706	3.5250e-01	7.0477	6.388722	0.000299	2.993994	0.507196	0.005987
 707	3.5300e-01	7.0602	6.415234	0.000265	2.651823	0.449231	0.005303
 708	3.5350e-01	7.0654	6.443885	0.000287	2.865680	0.485459	0.005730
 709	3.5400e-01	7.0776	6.475102	0.000312	3.122308	0.528933	0.006243
 710	3.5450e-01	7.0868	6.492635	0.000175	1.753625	0.297072	0.003507
 711	3.5500e-01	7.0959	6.506319	0.000137	1.368683	0.231861	0.002737
 712	3.5550e-01	7.1057	6.543094	0.000368	3.678335	0.623127	0.007355
 713	3.5600e-01	7.1204	6.560627	0.000175	1.753625	0.297072	0.003507
 714	3.5650e-01	7.1240	6.585857	0.000252	2.523509	0.427494	0.005046
 715	3.5700e-01	7.1356	6.625198	0.000393	3.934963	0.666601	0.007868
 716	3.5750e-01	7.1460	6.661547	0.000364	3.635564	0.615881	0.007270
 717	3.5800e-01	7.1567	6.665823	0.000043	0.427713	0.072457	0.000855
 718	3.5850e-01	7.1661	6.706447	0.000406	4.063277	0.688338	0.008125
 719	3.5900e-01	7.1765	6.722269	0.000158	1.582540	0.268089	0.003164
 720	3.5950e-01	7.1869	6.745789	0.000235	2.352424	0.398511	0.004704
 721	3.6000e-01	7.1948	6.771874	0.000261	2.609052	0.441985	0.005217
 722	3.6050e-01	7.2086	6.799669	0.000278	2.780137	0.470968	0.005559
 723	3.6100e-01	7.2163	6.815064	0.000154	1.539768	0.260844	0.003079
 724	3.6150e-01	7.2260	6.847991	0.000329	3.293393	0.557916	0.006585
 725	3.6200e-01	7.2382	6.876642	0.000287	2.865680	0.485459	0.005730
 726	3.6250e-01	7.2455	6.900161	0.000235	2.352424	0.398511	0.004704
 727	3.6300e-01	7.2571	6.920260	0.000201	2.010253	0.340546	0.004020
 728	3.6350e-01	7.2668	6.950194	0.000299	2.993994	0.507196	0.005987
 729	3.6400e-01	7.2760	6.966871	0.000167	1.668082	0.282581	0.003335
 730	3.6450e-01	7.2864	6.995949	0.000291	2.908451	0.492705	0.005816
 731	3.6500e-01	7.2974	7.032725	0.000368	3.678335	0.623127	0.007355
 732	3.6550e-01	7.3090	7.057100	0.000244	2.437966	0.413003	0.004875
 733	3.6600e-01	7.3148	7.080619	0.000235	2.352424	0.398511	0.004704
 734	3.6650e-01	7.3282	7.102428	0.000218	2.181338	0.369529	0.004362
 735	3.6700e-01	7.3358	7.126375	0.000240	2.395195	0.405757	0.004789
 736	3.6750e-01	7.3465	7.164861	0.000385	3.849420	0.652109	0.007697
 737	3.6800e-01	7.3550	7.191802	0.000269	2.694594	0.456477	0.005388
 738	3.6850e-01	7.3663	7.207196	0.000154	1.539768	0.260844	0.003079
 739	3.6900e-01	7.3761	7.222163	0.000150	1.496997	0.253598	0.002993
 740	3.6950e-01	7.3895	7.257656	0.000355	3.550021	0.601390	0.007099
 741	3.7000e-01	7.3950	7.285024	0.000274	2.737366	0.463722	0.005474
 742	3.7050e-01	7.4054	7.303840	0.000188	1.881939	0.318809	0.003763
 743	3.7100e-01	7.4146	7.336767	0.000329	3.293393	0.557916	0.006585
 744	3.7150e-01	7.4280	7.361997	0.000252	2.523509	0.427494	0.005046
 745	3.7200e-01	7.4347	7.384661	0.000227	2.266881	0.384020	0.004533
 746	3.7250e-01	7.4457	7.409891	0.000252	2.523509	0.427494	0.005046
 747	3.7300e-01	7.4554	7.443673	0.000338	3.378936	0.572407	0.006756
 748	3.7350e-01	7.4664	7.466765	0.000231	2.309652	0.391266	0.004618
 749	3.7400e-01	7.4744	7.490712	0.000240	2.395195	0.405757	0.004789
 750	3.7450e-01	7.4884	7.508672	0.000180	1.796396	0.304318	0.003592
 751	3.7500e-01	7.4963	7.536040	0.000274	2.737366	0.463722	0.005474
 752	3.7550e-01	7.5055	7.559560	0.000235	2.352424	0.398511	0.004704
 753	3.7600e-01	7.5165	7.588210	0.000287	2.865680	0.485459	0.005730
 754	3.7650e-01	7.5275	7.610447	0.000222	2.224110	0.376774	0.004447
 755	3.7700e-01	7.5360	7.627124	0.000167	1.668082	0.282581	0.003335
 756	3.7750e-01	7.5433	7.668604	0.000415	4.148820	0.702829	0.008296
 757	3.7800e-01	7.5574	7.681860	0.000133	1.325911	0.224615	0.002651
 758	3.7850e-01	7.5677	7.688275	0.000064	0.641570	0.108685	0.001283
 759	3.7900e-01	7.5745	7.740873	0.000526	5.260875	0.891216	0.010520
 760	3.7950e-01	7.5888	7.762254	0.000214	2.138567	0.362283	0.004276
 761	3.8000e-01	7.5958	7.794754	0.000325	3.250622	0.550670	0.006500
 762	3.8050e-01	7.6074	7.816562	0.000218	2.181338	0.369529	0.004362
 763	3.8100e-01	7.6160	7.845641	0.000291	2.908451	0.492705	0.005816
 764	3.8150e-01	7.6254	7.863601	0.000180	1.796396	0.304318	0.003592
 765	3.8200e-01	7.6373	7.889259	0.000257	2.566280	0.434740	0.005132
 766	3.8250e-01	7.6483	7.911495	0.000222	2.224110	0.376774	0.004447
 767	3.8300e-01	7.6566	7.937580	0.000261	2.609052	0.441985	0.005217
 768	3.8350e-01	7.6700	7.943567	0.000060	0.598799	0.101439	0.001197
 769	3.8400e-01	7.6808	7.986330	0.000428	4.277134	0.724566	0.008553
 770	3.8450e-01	7.6874	8.015408	0.000291	2.908451	0.492705	0.005816
 771	3.8500e-01	7.6961	8.043631	0.000282	2.822908	0.478214	0.005645
 772	3.8550e-01	7.7046	8.065868	0.000222	2.224110	0.376774	0.004447
 773	3.8600e-01	7.7158	8.086822	0.000210	2.095796	0.355037	0.004191
 774	3.8650e-01	7.7258	8.108630	0.000218	2.181338	0.369529	0.004362
 775	3.8700e-01	7.7376	8.150538	0.000419	4.191591	0.710075	0.008381
 776	3.8750e-01	7.7451	8.158663	0.000081	0.812655	0.137668	0.001625
 777	3.8800e-01	7.7576	8.182610	0.000240	2.395195	0.405757	0.004789
 778	3.8850e-01	7.7652	8.221524	0.000389	3.892192	0.659355	0.007783
 779	3.8900e-01	7.7753	8.260865	0.000393	3.934963	0.666601	0.007868
 780	3.8950e-01	7.7875	8.273694	0.000128	1.283140	0.217370	0.002566
 781	3.9000e-01	7.7939	8.301062	0.000274	2.737366	0.463722	0.005474
 782	3.9050e-01	7.8064	8.315601	0.000145	1.454225	0.246352	0.002908
 783	3.9100e-01	7.8146	8.334844	0.000192	1.924710	0.326055	0.003849
 784	3.9150e-01	7.8249	8.358791	0.000240	2.395195	0.405757	0.004789
 785	3.9200e-01	7.8381	8.385304	0.000265	2.651823	0.449231	0.005303
 786	3.9250e-01	7.8467	8.428922	0.000436	4.362676	0.739057	0.008724
 787	3.9300e-01	7.8555	8.456290	0.000274	2.737366	0.463722	0.005474
 788	3.9350e-01	7.8650	8.458428	0.000021	0.213857	0.036228	0.000428
 789	3.9400e-01	7.8766	8.488362	0.000299	2.993994	0.507196	0.005987
 790	3.9450e-01	7.8864	8.517440	0.000291	2.908451	0.492705	0.005816
 791	3.9500e-01	7.8961	8.531979	0.000145	1.454225	0.246352	0.002908
 792	3.9550e-01	7.9059	8.549084	0.000171	1.710854	0.289826	0.003421
 793	3.9600e-01	7.9150	8.599972	0.000509	5.089789	0.862234	0.010177
 794	3.9650e-01	7.9266	8.607242	0.000073	0.727113	0.123176	0.001454
 795	3.9700e-01	7.9337	8.637175	0.000299	2.993994	0.507196	0.005987
 796	3.9750e-01	7.9474	8.664116	0.000269	2.694594	0.456477	0.005388
 797	3.9800e-01	7.9565	8.679938	0.000158	1.582540	0.268089	0.003164
 798	3.9850e-01	7.9645	8.717996	0.000381	3.806649	0.644864	0.007612
 799	3.9900e-01	7.9768	8.750924	0.000329	3.293393	0.557916	0.006585
 800	3.9950e-01	7.9852	8.762470	0.000115	1.154826	0.195633	0.002309
 801	4.0000e-01	7.9962	8.782140	0.000197	1.967482	0.333300	0.003934
 802	4.0050e-01	8.0043	8.802239	0.000201	2.010253	0.340546	0.004020
 803	4.0100e-01	8.0167	8.836876	0.000346	3.464478	0.586899	0.006928
 804	4.0150e-01	8.0273	8.857402	0.000205	2.053024	0.347792	0.004105
 805	4.0200e-01	8.0353	8.885198	0.000278	2.780137	0.470968	0.005559
 806	4.0250e-01	8.0435	8.912138	0.000269	2.694594	0.456477	0.005388
 807	4.0300e-01	8.0542	8.934802	0.000227	2.266881	0.384020	0.004533
 808	4.0350e-01	8.0643	8.972434	0.000376	3.763878	0.637618	0.007526
 809	4.0400e-01	8.0768	8.982269	0.000098	0.983741	0.166650	0.001967
 810	4.0450e-01	8.0869	8.994670	0.000124	1.240369	0.210124	0.002480
 811	4.0500e-01	8.0963	9.033156	0.000385	3.849420	0.652109	0.007697
 812	4.0550e-01	8.1055	9.073781	0.000406	4.063277	0.688338	0.008125
 813	4.0600e-01	8.1140	9.078912	0.000051	0.513256	0.086948	0.001026
 814	4.0650e-01	8.1250	9.110556	0.000317	3.165079	0.536179	0.006329
 815	4.0700e-01	8.1348	9.131082	0.000205	2.053024	0.347792	0.004105
 816	4.0750e-01	8.1488	9.160161	0.000291	2.908451	0.492705	0.005816
 817	4.0800e-01	8.1561	9.184108	0.000240	2.395195	0.405757	0.004789
 818	4.0850e-01	8.1671	9.210621	0.000265	2.651823	0.449231	0.005303
 819	4.0900e-01	8.1738	9.235851	0.000252	2.523509	0.427494	0.005046
 820	4.0950e-01	8.1854	9.252956	0.000171	1.710854	0.289826	0.003421
 821	4.1000e-01	8.1976	9.267067	0.000141	1.411454	0.239107	0.002822
 822	4.1050e-01	8.2068	9.305981	0.000389	3.892192	0.659355	0.007783
 823	4.1100e-01	8.2178	9.331639	0.000257	2.566280	0.434740	0.005132
 824	4.1150e-01	8.2300	9.360290	0.000287	2.865680	0.485459	0.005730
 825	4.1200e-01	8.2361	9.379960	0.000197	1.967482	0.333300	0.003934
 826	4.1250e-01	8.2483	9.394500	0.000145	1.454225	0.246352	0.002908
 827	4.1300e-01	8.2571	9.431275	0.000368	3.678335	0.623127	0.007355
 828	4.1350e-01	8.2666	9.451374	0.000201	2.010253	0.340546	0.004020
 829	4.1400e-01	8.2764	9.468906	0.000175	1.753625	0.297072	0.003507
 830	4.1450e-01	8.2870	9.490715	0.000218	2.181338	0.369529	0.004362
 831	4.1500e-01	8.2983	9.525781	0.000351	3.507250	0.594144	0.007013
 832	4.1550e-01	8.3069	9.567260	0.000415	4.148820	0.702829	0.008296
 833	4.1600e-01	8.3160	9.578806	0.000115	1.154826	0.195633	0.002309
 834	4.1650e-01	8.3276	9.605747	0.000269	2.694594	0.456477	0.005388
 835	4.1700e-01	8.3377	9.628411	0.000227	2.266881	0.384020	0.004533
 836	4.1750e-01	8.3456	9.648937	0.000205	2.053024	0.347792	0.004105
 837	4.1800e-01	8.3588	9.666469	0.000175	1.753625	0.297072	0.003507
 838	4.1850e-01	8.3649	9.698114	0.000317	3.165079	0.536179	0.006329
 839	4.1900e-01	8.3740	9.728047	0.000299	2.993994	0.507196	0.005987
 840	4.1950e-01	8.3868	9.762257	0.000342	3.421707	0.579653	0.006842
 841	4.2000e-01	8.3990	9.760119	-0.000021	-0.213857	-0.036228	-0.000428
 842	4.2050e-01	8.4055	9.800744	0.000406	4.063277	0.688338	0.008125
 843	4.2100e-01	8.4149	9.817849	0.000171	1.710854	0.289826	0.003421
 844	4.2150e-01	8.4265	9.849921	0.000321	3.207850	0.543425	0.006414
 845	4.2200e-01	8.4357	9.857618	0.000077	0.769884	0.130422	0.001539
 846	4.2250e-01	8.4464	9.880282	0.000227	2.266881	0.384020	0.004533
 847	4.2300e-01	8.4595	9.905512	0.000252	2.523509	0.427494	0.005046
 848	4.2350e-01	8.4656	9.930314	0.000248	2.480738	0.420248	0.004960
 849	4.2400e-01	8.4772	9.972221	0.000419	4.191591	0.710075	0.008381
 850	4.2450e-01	8.4851	9.992320	0.000201	2.010253	0.340546	0.004020
 851	4.2500e-01	8.4943	10.028668	0.000364	3.635564	0.615881	0.007270
 852	4.2550e-01	8.5083	10.040214	0.000115	1.154826	0.195633	0.002309
 853	4.2600e-01	8.5150	10.053898	0.000137	1.368683	0.231861	0.002737
 854	4.2650e-01	8.5260	10.085970	0.000321	3.207850	0.543425	0.006414
 855	4.2700e-01	8.5358	10.119324	0.000334	3.336164	0.565162	0.006671
 856	4.2750e-01	8.5455	10.163370	0.000441	4.405448	0.746303	0.008809
 857	4.2800e-01	8.5571	10.171067	0.000077	0.769884	0.130422	0.001539
 858	4.2850e-01	8.5683	10.180903	0.000098	0.983741	0.166650	0.001967
 859	4.2900e-01	8.5760	10.212547	0.000317	3.165079	0.536179	0.006329
 860	4.2950e-01	8.5858	10.222382	0.000098	0.983741	0.166650	0.001967
 861	4.3000e-01	8.5971	10.263862	0.000415	4.148820	0.702829	0.008296
 862	4.3050e-01	8.6072	10.278401	0.000145	1.454225	0.246352	0.002908
 863	4.3100e-01	8.6169	10.306197	0.000278	2.780137	0.470968	0.005559
 864	4.3150e-01	8.6279	10.320308	0.000141	1.411454	0.239107	0.002822
 865	4.3200e-01	8.6371	10.344255	0.000240	2.395195	0.405757	0.004789
 866	4.3250e-01	8.6462	10.384880	0.000406	4.063277	0.688338	0.008125
 867	4.3300e-01	8.6578	10.398564	0.000137	1.368683	0.231861	0.002737
 868	4.3350e-01	8.6682	10.428925	0.000304	3.036765	0.514442	0.006072
 869	4.3400e-01	8.6761	10.459714	0.000308	3.079536	0.521688	0.006158
 870	4.3450e-01	8.6871	10.466984	0.000073	0.727113	0.123176	0.001454
 871	4.3500e-01	8.6963	10.506753	0.000398	3.977734	0.673846	0.007954
 872	4.3550e-01	8.7073	10.521720	0.000150	1.496997	0.253598	0.002993
 873	4.3600e-01	8.7152	10.549943	0.000282	2.822908	0.478214	0.005645
 874	4.3650e-01	8.7247	10.563200	0.000133	1.325911	0.224615	0.002651
 875	4.3700e-01	8.7355	10.593133	0.000299	2.993994	0.507196	0.005987
 876	4.3750e-01	8.7476	10.609811	0.000167	1.668082	0.282581	0.003335
 877	4.3800e-01	8.7561	10.653001	0.000432	4.319905	0.731812	0.008638
 878	4.3850e-01	8.7671	10.658560	0.000056	0.556027	0.094194	0.001112
 879	4.3900e-01	8.7775	10.685928	0.000274	2.737366	0.463722	0.005474
 880	4.3950e-01	8.7866	10.712441	0.000265	2.651823	0.449231	0.005303
 881	4.4000e-01	8.7965	10.748361	0.000359	3.592792	0.608636	0.007184
 882	4.4050e-01	8.8080	10.778723	0.000304	3.036765	0.514442	0.006072
 883	4.4100e-01	8.8167	10.792407	0.000137	1.368683	0.231861	0.002737
 884	4.4150e-01	8.8275	10.788558	-0.000038	-0.384942	-0.065211	-0.000770
 885	4.4200e-01	8.8342	10.850564	0.000620	6.201844	1.050621	0.012401
 886	4.4250e-01	8.8452	10.883918	0.000334	3.336164	0.565162	0.006671
 887	4.4300e-01	8.8541	10.886912	0.000030	0.299399	0.050720	0.000599
 888	4.4350e-01	8.8666	10.906583	0.000197	1.967482	0.333300	0.003934
 889	4.4400e-01	8.8773	10.932240	0.000257	2.566280	0.434740	0.005132
 890	4.4450e-01	8.8870	10.963029	0.000308	3.079536	0.521688	0.006158
 891	4.4500e-01	8.8943	10.987404	0.000244	2.437966	0.413003	0.004875
 892	4.4550e-01	8.9035	11.003226	0.000158	1.582540	0.268089	0.003164
 893	4.4600e-01	8.9166	11.029311	0.000261	2.609052	0.441985	0.005217
 894	4.4650e-01	8.9246	11.064804	0.000355	3.550021	0.601390	0.007099
 895	4.4700e-01	8.9362	11.072501	0.000077	0.769884	0.130422	0.001539
 896	4.4750e-01	8.9478	11.105428	0.000329	3.293393	0.557916	0.006585
 897	4.4800e-01	8.9557	11.122533	0.000171	1.710854	0.289826	0.003421
 898	4.4850e-01	8.9648	11.158454	0.000359	3.592792	0.608636	0.007184
 899	4.4900e-01	8.9746	11.179835	0.000214	2.138567	0.362283	0.004276
 900	4.4950e-01	8.9856	11.203782	0.000240	2.395195	0.405757	0.004789
 901	4.5000e-01	8.9954	11.214900	0.000111	1.112055	0.188387	0.002224
 902	4.5050e-01	9.0094	11.246545	0.000317	3.165079	0.536179	0.006329
 903	4.5100e-01	9.0167	11.277334	0.000308	3.079536	0.521688	0.006158
 904	4.5150e-01	9.0259	11.309833	0.000325	3.250622	0.550670	0.006500
 905	4.5200e-01	9.0369	11.329932	0.000201	2.010253	0.340546	0.004020
 906	4.5250e-01	9.0472	11.348320	0.000184	1.839168	0.311563	0.003678
 907	4.5300e-01	9.0558	11.363714	0.000154	1.539768	0.260844	0.003079
 908	4.5350e-01	9.0649	11.396214	0.000325	3.250622	0.550670	0.006500
 909	4.5400e-01	9.0753	11.414601	0.000184	1.839168	0.311563	0.003678
 910	4.5450e-01	9.0869	11.439831	0.000252	2.523509	0.427494	0.005046
 911	4.5500e-01	9.0961	11.471476	0.000317	3.165079	0.536179	0.006329
 912	4.5550e-01	9.1040	11.485587	0.000141	1.411454	0.239107	0.002822
 913	4.5600e-01	9.1156	11.506969	0.000214	2.138567	0.362283	0.004276
 914	4.5650e-01	9.1260	11.540751	0.000338	3.378936	0.572407	0.006756
 915	4.5700e-01	9.1370	11.553152	0.000124	1.240369	0.210124	0.002480
 916	4.5750e-01	9.1476	11.573678	0.000205	2.053024	0.347792	0.004105
 917	4.5800e-01	9.1577	11.613020	0.000393	3.934963	0.666601	0.007868
 918	4.5850e-01	9.1650	11.633546	0.000205	2.053024	0.347792	0.004105
 919	4.5900e-01	9.1772	11.642098	0.000086	0.855427	0.144913	0.001711
 920	4.5950e-01	9.1843	11.681867	0.000398	3.977734	0.673846	0.007954
 921	4.6000e-01	9.1986	11.704104	0.000222	2.224110	0.376774	0.004447
 922	4.6050e-01	9.2078	11.722064	0.000180	1.796396	0.304318	0.003592
 923	4.6100e-01	9.2188	11.738741	0.000167	1.668082	0.282581	0.003335
 924	4.6150e-01	9.2261	11.773379	0.000346	3.464478	0.586899	0.006928
 925	4.6200e-01	9.2371	11.796898	0.000235	2.352424	0.398511	0.004704
 926	4.6250e-01	9.2456	11.816569	0.000197	1.967482	0.333300	0.003934
 927	4.6300e-01	9.2560	11.839233	0.000227	2.266881	0.384020	0.004533
 928	4.6350e-01	9.2648	11.859759	0.000205	2.053024	0.347792	0.004105
 929	4.6400e-01	9.2773	11.887983	0.000282	2.822908	0.478214	0.005645
 930	4.6450e-01	9.2877	11.918772	0.000308	3.079536	0.521688	0.006158
 931	4.6500e-01	9.2941	11.949561	0.000308	3.079536	0.521688	0.006158
 932	4.6550e-01	9.3066	11.961107	0.000115	1.154826	0.195633	0.002309
 933	4.6600e-01	9.3170	11.990185	0.000291	2.908451	0.492705	0.005816
 934	4.6650e-01	9.3280	12.014987	0.000248	2.480738	0.420248	0.004960
 935	4.6700e-01	9.3372	12.029099	0.000141	1.411454	0.239107	0.002822
 936	4.6750e-01	9.3457	12.065875	0.000368	3.678335	0.623127	0.007355
 937	4.6800e-01	9.3555	12.070579	0.000047	0.470485	0.079702	0.000941
 938	4.6850e-01	9.3652	12.090677	0.000201	2.010253	0.340546	0.004020
 939	4.6900e-01	9.3750	12.130446	0.000398	3.977734	0.673846	0.007954
 940	4.6950e-01	9.3851	12.148406	0.000180	1.796396	0.304318	0.003592
 941	4.7000e-01	9.3964	12.176202	0.000278	2.780137	0.470968	0.005559
 942	4.7050e-01	9.4067	12.197583	0.000214	2.138567	0.362283	0.004276
 943	4.7100e-01	9.4171	12.217682	0.000201	2.010253	0.340546	0.004020
 944	4.7150e-01	9.4293	12.235214	0.000175	1.753625	0.297072	0.003507
 945	4.7200e-01	9.4342	12.276694	0.000415	4.148820	0.702829	0.008296
 946	4.7250e-01	9.4379	12.281826	0.000051	0.513256	0.086948	0.001026
 947	4.7300e-01	9.4592	12.315608	0.000338	3.378936	0.572407	0.006756
 948	4.7350e-01	9.4672	12.342976	0.000274	2.737366	0.463722	0.005474
 949	4.7400e-01	9.4763	12.375048	0.000321	3.207850	0.543425	0.006414
 950	4.7450e-01	9.4861	12.395146	0.000201	2.010253	0.340546	0.004020
 951	4.7500e-01	9.4958	12.416955	0.000218	2.181338	0.369529	0.004362
 952	4.7550e-01	9.5099	12.432777	0.000158	1.582540	0.268089	0.003164
 953	4.7600e-01	9.5184	12.437909	0.000051	0.513256	0.086948	0.001026
 954	4.7650e-01	9.5251	12.487513	0.000496	4.961475	0.840497	0.009921
 955	4.7700e-01	9.5343	12.492217	0.000047	0.470485	0.079702	0.000941
 956	4.7750e-01	9.5465	12.549519	0.000573	5.731359	0.970919	0.011460
 957	4.7800e-01	9.5569	12.563631	0.000141	1.411454	0.239107	0.002822
 958	4.7850e-01	9.5648	12.592709	0.000291	2.908451	0.492705	0.005816
 959	4.7900e-01	9.5758	12.601262	0.000086	0.855427	0.144913	0.001711
 960	4.7950e-01	9.5868	12.637182	0.000359	3.592792	0.608636	0.007184
 961	4.8000e-01	9.5963	12.643596	0.000064	0.641570	0.108685	0.001283
 962	4.8050e-01	9.6069	12.665833	0.000222	2.224110	0.376774	0.004447
 963	4.8100e-01	9.6173	12.703892	0.000381	3.806649	0.644864	0.007612
 964	4.8150e-01	9.6234	12.739385	0.000355	3.550021	0.601390	0.007099
 965	4.8200e-01	9.6344	12.745799	0.000064	0.641570	0.108685	0.001283
 966	4.8250e-01	9.6460	12.770174	0.000244	2.437966	0.413003	0.004875
 967	4.8300e-01	9.6594	12.793693	0.000235	2.352424	0.398511	0.004704
 968	4.8350e-01	9.6661	12.806094	0.000124	1.240369	0.210124	0.002480
 969	4.8400e-01	9.6777	12.843297	0.000372	3.721106	0.630372	0.007441
 970	4.8450e-01	9.6857	12.869383	0.000261	2.609052	0.441985	0.005217
 971	4.8500e-01	9.6948	12.898889	0.000295	2.951222	0.499951	0.005901
 972	4.8550e-01	9.7058	12.910435	0.000115	1.154826	0.195633	0.002309
 973	4.8600e-01	9.7168	12.934382	0.000240	2.395195	0.405757	0.004789
 974	4.8650e-01	9.7260	12.959612	0.000252	2.523509	0.427494	0.005046
 975	4.8700e-01	9.7351	12.991256	0.000317	3.165079	0.536179	0.006329
 976	4.8750e-01	9.7467	13.004940	0.000137	1.368683	0.231861	0.002737
 977	4.8800e-01	9.7620	13.034874	0.000299	2.993994	0.507196	0.005987
 978	4.8850e-01	9.7662	13.056255	0.000214	2.138567	0.362283	0.004276
 979	4.8900e-01	9.7784	13.081485	0.000252	2.523509	0.427494	0.005046
 980	4.8950e-01	9.7841	13.111846	0.000304	3.036765	0.514442	0.006072
 981	4.9000e-01	9.7961	13.128951	0.000171	1.710854	0.289826	0.003421
 982	4.9050e-01	9.8053	13.148194	0.000192	1.924710	0.326055	0.003849
 983	4.9100e-01	9.8148	13.178128	0.000299	2.993994	0.507196	0.005987
 984	4.9150e-01	9.8254	13.201220	0.000231	2.309652	0.391266	0.004618
 985	4.9200e-01	9.8346	13.216614	0.000154	1.539768	0.260844	0.003079
 986	4.9250e-01	9.8450	13.245265	0.000287	2.865680	0.485459	0.005730
 987	4.9300e-01	9.8553	13.265791	0.000205	2.053024	0.347792	0.004105
 988	4.9350e-01	9.8647	13.295297	0.000295	2.951222	0.499951	0.005901
 989	4.9400e-01	9.8749	13.325659	0.000304	3.036765	0.514442	0.006072
 990	4.9450e-01	9.8865	13.327369	0.000017	0.171085	0.028983	0.000342
 991	4.9500e-01	9.8950	13.362435	0.000351	3.507250	0.594144	0.007013
 992	4.9550e-01	9.9066	13.385954	0.000235	2.352424	0.398511	0.004704
 993	4.9600e-01	9.9161	13.406480	0.000205	2.053024	0.347792	0.004105
 994	4.9650e-01	9.9255	13.438552	0.000321	3.207850	0.543425	0.006414
 995	4.9700e-01	9.9359	13.452664	0.000141	1.411454	0.239107	0.002822
 996	4.9750e-01	9.9445	13.479176	0.000265	2.651823	0.449231	0.005303
 997	4.9800e-01	9.9536	13.514242	0.000351	3.507250	0.594144	0.007013
 998	4.9850e-01	9.9652	13.524505	0.000103	1.026512	0.173896	0.002053
 999	4.9900e-01	9.9768	13.556149	0.000317	3.165079	0.536179	0.006329
1000	4.9950e-01	9.9849	13.558715	0.000026	0.256628	0.043474	0.000513
1001	5.0000e-01	9.9945	13.610885	0.000522	5.218103	0.883971	0.010434
1002	5.0050e-01	9.9835	13.578385	0.000325	3.250622	0.550670	-0.006500
1003	5.0100e-01	9.9762	13.541610	0.000368	3.678335	0.623127	-0.007355
1004	5.0150e-01	9.9652	13.537333	0.000043	0.427713	0.072457	-0.000855
1005	5.0200e-01	9.9579	13.522366	0.000150	1.496997	0.253598	-0.002993
1006	5.0250e-01	9.9445	13.507400	0.000150	1.496997	0.253598	-0.002993
1007	5.0300e-01	9.9359	13.492005	0.000154	1.539768	0.260844	-0.003079
1008	5.0350e-01	9.9268	13.471479	0.000205	2.053024	0.347792	-0.004105
1009	5.0400e-01	9.9139	13.461216	0.000103	1.026512	0.173896	-0.002053
1010	5.0450e-01	9.9048	13.442401	0.000188	1.881939	0.318809	-0.003763
1011	5.0500e-01	9.8969	13.438980	0.000034	0.342171	0.057965	-0.000684
1012	5.0550e-01	9.8859	13.404342	0.000346	3.464478	0.586899	-0.006928
1013	5.0600e-01	9.8755	13.393651	0.000107	1.069283	0.181142	-0.002138
1014	5.0650e-01	9.8651	13.388947	0.000047	0.470485	0.079702	-0.000941
1015	5.0700e-01	9.8578	13.361152	0.000278	2.780137	0.470968	-0.005559
1016	5.0750e-01	9.8462	13.329507	0.000317	3.165079	0.536179	-0.006329
1017	5.0800e-01	9.8340	13.343619	-0.000141	-1.411454	-0.239107	0.002822
1018	5.0850e-01	9.8267	13.323521	0.000201	2.010253	0.340546	-0.004020
1019	5.0900e-01	9.8148	13.297436	0.000261	2.609052	0.441985	-0.005217
1020	5.0950e-01	9.8077	13.294015	0.000034	0.342171	0.057965	-0.000684
1021	5.1000e-01	9.7943	13.269640	0.000244	2.437966	0.413003	-0.004875
1022	5.1050e-01	9.7845	13.261515	0.000081	0.812655	0.137668	-0.001625
1023	5.1100e-01	9.7754	13.237996	0.000235	2.352424	0.398511	-0.004704
1024	5.1150e-01	9.7656	13.221318	0.000167	1.668082	0.282581	-0.003335
1025	5.1200e-01	9.7559	13.201220	0.000201	2.010253	0.340546	-0.004020
1026	5.1250e-01	9.7473	13.181121	0.000201	2.010253	0.340546	-0.004020
1027	5.1300e-01	9.7363	13.161023	0.000201	2.010253	0.340546	-0.004020
1028	5.1350e-01	9.7247	13.154181	0.000068	0.684341	0.115931	-0.001368
1029	5.1400e-01	9.7186	13.122964	0.000312	3.122308	0.528933	-0.006243
1030	5.1450e-01	9.7052	13.121682	0.000013	0.128314	0.021737	-0.000257
1031	5.1500e-01	9.6948	13.096879	0.000248	2.480738	0.420248	-0.004960
1032	5.1550e-01	9.6851	13.099445	-0.000026	-0.256628	-0.043474	0.000513
1033	5.1600e-01	9.6771	13.062242	0.000372	3.721106	0.630372	-0.007441
1034	5.1650e-01	9.6667	13.038295	0.000240	2.395195	0.405757	-0.004789
1035	5.1700e-01	9.6564	13.036156	0.000021	0.213857	0.036228	-0.000428
1036	5.1750e-01	9.6466	13.012209	0.000240	2.395195	0.405757	-0.004789
1037	5.1800e-01	9.6356	12.983986	0.000282	2.822908	0.478214	-0.005645
1038	5.1850e-01	9.6252	12.986980	-0.000030	-0.299399	-0.050720	0.000599
1039	5.1900e-01	9.6143	12.963460	0.000235	2.352424	0.398511	-0.004704
1040	5.1950e-01	9.6057	12.957901	0.000056	0.556027	0.094194	-0.001112
1041	5.2000e-01	9.5938	12.920698	0.000372	3.721106	0.630372	-0.007441
1042	5.2050e-01	9.5892	12.923691	-0.000030	-0.299399	-0.050720	0.000599
1043	5.2100e-01	9.5776	12.875797	0.000479	4.790390	0.811514	-0.009579
1044	5.2150e-01	9.5639	12.879646	-0.000038	-0.384942	-0.065211	0.000770
1045	5.2200e-01	9.5569	12.847146	0.000325	3.250622	0.550670	-0.006500
1046	5.2250e-01	9.5428	12.830469	0.000167	1.668082	0.282581	-0.003335
1047	5.2300e-01	9.5369	12.810370	0.000201	2.010253	0.340546	-0.004020
1048	5.2350e-01	9.5270	12.807377	0.000030	0.299399	0.050720	-0.000599
1049	5.2400e-01	9.5172	12.795403	0.000120	1.197597	0.202879	-0.002395
1050	5.2450e-01	9.5056	12.764614	0.000308	3.079536	0.521688	-0.006158
1051	5.2500e-01	9.4958	12.755207	0.000094	0.940969	0.159405	-0.001882
1052	5.2550e-01	9.4843	12.735108	0.000201	2.010253	0.340546	-0.004020
1053	5.2600e-01	9.4769	12.705602	0.000295	2.951222	0.499951	-0.005901
1054	5.2650e-01	9.4659	12.689780	0.000158	1.582540	0.268089	-0.003164
1055	5.2700e-01	9.4531	12.688070	0.000017	0.171085	0.028983	-0.000342
1056	5.2750e-01	9.4470	12.658563	0.000295	2.951222	0.499951	-0.005901
1057	5.2800e-01	9.4348	12.636754	0.000218	2.181338	0.369529	-0.004362
1058	5.2850e-01	9.4250	12.626491	0.000103	1.026512	0.173896	-0.002053
1059	5.2900e-01	9.4159	12.621788	0.000047	0.470485	0.079702	-0.000941
1060	5.2950e-01	9.4098	12.581163	0.000406	4.063277	0.688338	-0.008125
1061	5.3000e-01	9.3976	12.546526	0.000346	3.464478	0.586899	-0.006928
1062	5.3050e-01	9.3860	12.551657	-0.000051	-0.513256	-0.086948	0.001026
1063	5.3100e-01	9.3750	12.533697	0.000180	1.796396	0.304318	-0.003592
1064	5.3150e-01	9.3652	12.517447	0.000163	1.625311	0.275335	-0.003250
1065	5.3200e-01	9.3555	12.484092	0.000334	3.336164	0.565162	-0.006671
1066	5.3250e-01	9.3451	12.485375	-0.000013	-0.128314	-0.021737	0.000257
1067	5.3300e-01	9.3359	12.462283	0.000231	2.309652	0.391266	-0.004618
1068	5.3350e-01	9.3256	12.434060	0.000282	2.822908	0.478214	-0.005645
1069	5.3400e-01	9.3161	12.416100	0.000180	1.796396	0.304318	-0.003592
1070	5.3450e-01	9.3054	12.396857	0.000192	1.924710	0.326055	-0.003849
1071	5.3500e-01	9.2960	12.383600	0.000133	1.325911	0.224615	-0.002651
1072	5.3550e-01	9.2847	12.362647	0.000210	2.095796	0.355037	-0.004191
1073	5.3600e-01	9.2761	12.339983	0.000227	2.266881	0.384020	-0.004533
1074	5.3650e-01	9.2651	12.330147	0.000098	0.983741	0.166650	-0.001967
1075	5.3700e-01	9.2548	12.308766	0.000214	2.138567	0.362283	-0.004276
1076	5.3750e-01	9.2462	12.303634	0.000051	0.513256	0.086948	-0.001026
1077	5.3800e-01	9.2365	12.277977	0.000257	2.566280	0.434740	-0.005132
1078	5.3850e-01	9.2249	12.262155	0.000158	1.582540	0.268089	-0.003164
1079	5.3900e-01	9.2157	12.243339	0.000188	1.881939	0.318809	-0.003763
1080	5.3950e-01	9.2090	12.212123	0.000312	3.122308	0.528933	-0.006243
1081	5.4000e-01	9.1953	12.177057	0.000351	3.507250	0.594144	-0.007013
1082	5.4050e-01	9.1901	12.180478	-0.000034	-0.342171	-0.057965	0.000684
1083	5.4100e-01	9.1772	12.140709	0.000398	3.977734	0.673846	-0.007954
1084	5.4150e-01	9.1687	12.152255	-0.000115	-1.154826	-0.195633	0.002309
1085	5.4200e-01	9.1577	12.117190	0.000351	3.507250	0.594144	-0.007013
1086	5.4250e-01	9.1495	12.099657	0.000175	1.753625	0.297072	-0.003507
1087	5.4300e-01	9.1364	12.081697	0.000180	1.796396	0.304318	-0.003592
1088	5.4350e-01	9.1257	12.060316	0.000214	2.138567	0.362283	-0.004276
1089	5.4400e-01	9.1162	12.050480	0.000098	0.983741	0.166650	-0.001967
1090	5.4450e-01	9.1034	12.035513	0.000150	1.496997	0.253598	-0.002993
1091	5.4500e-01	9.0924	12.019264	0.000163	1.625311	0.275335	-0.003250
1092	5.4550e-01	9.0851	11.993178	0.000261	2.609052	0.441985	-0.005217
1093	5.4600e-01	9.0771	11.974363	0.000188	1.881939	0.318809	-0.003763
1094	5.4650e-01	9.0668	11.954265	0.000201	2.010253	0.340546	-0.004020
1095	5.4700e-01	9.0552	11.918344	0.000359	3.592792	0.608636	-0.007184
1096	5.4750e-01	9.0469	11.904232	0.000141	1.411454	0.239107	-0.002822
1097	5.4800e-01	9.0363	11.901667	0.000026	0.256628	0.043474	-0.000513
1098	5.4850e-01	9.0286	11.865318	0.000364	3.635564	0.615881	-0.007270
1099	5.4900e-01	9.0152	11.855483	0.000098	0.983741	0.166650	-0.001967
1100	5.4950e-01	9.0063	11.843082	0.000124	1.240369	0.210124	-0.002480
1101	5.5000e-01	8.9978	11.815714	0.000274	2.737366	0.463722	-0.005474
1102	5.5050e-01	8.9844	11.796898	0.000188	1.881939	0.318809	-0.003763
1103	5.5100e-01	8.9740	11.774662	0.000222	2.224110	0.376774	-0.004447
1104	5.5150e-01	8.9648	11.758840	0.000158	1.582540	0.268089	-0.003164
1105	5.5200e-01	8.9557	11.732755	0.000261	2.609052	0.441985	-0.005217
1106	5.5250e-01	8.9453	11.721209	0.000115	1.154826	0.195633	-0.002309
1107	5.5300e-01	8.9337	11.702821	0.000184	1.839168	0.311563	-0.003678
1108	5.5350e-01	8.9270	11.679729	0.000231	2.309652	0.391266	-0.004618
1109	5.5400e-01	8.9160	11.660058	0.000197	1.967482	0.333300	-0.003934
1110	5.5450e-01	8.9026	11.637394	0.000227	2.266881	0.384020	-0.004533
1111	5.5500e-01	8.8959	11.608743	0.000287	2.865680	0.485459	-0.005730
1112	5.5550e-01	8.8843	11.602757	0.000060	0.598799	0.101439	-0.001197
1113	5.5600e-01	8.8782	11.594204	0.000086	0.855427	0.144913	-0.001711
1114	5.5650e-01	8.8647	11.558284	0.000359	3.592792	0.608636	-0.007184
1115	5.5700e-01	8.8544	11.528350	0.000299	2.993994	0.507196	-0.005987
1116	5.5750e-01	8.8458	11.523218	0.000051	0.513256	0.086948	-0.001026
1117	5.5800e-01	8.8354	11.496706	0.000265	2.651823	0.449231	-0.005303
1118	5.5850e-01	8.8245	11.476179	0.000205	2.053024	0.347792	-0.004105
1119	5.5900e-01	8.8135	11.480883	-0.000047	-0.470485	-0.079702	0.000941
1120	5.5950e-01	8.8062	11.444963	0.000359	3.592792	0.608636	-0.007184
1121	5.6000e-01	8.7964	11.412036	0.000329	3.293393	0.557916	-0.006585
1122	5.6050e-01	8.7875	11.411608	0.000004	0.042771	0.007246	-0.000086
1123	5.6100e-01	8.7738	11.391937	0.000197	1.967482	0.333300	-0.003934
1124	5.6150e-01	8.7653	11.384240	0.000077	0.769884	0.130422	-0.001539
1125	5.6200e-01	8.7585	11.354734	0.000295	2.951222	0.499951	-0.005901
1126	5.6250e-01	8.7482	11.315820	0.000389	3.892192	0.659355	-0.007783
1127	5.6300e-01	8.7360	11.286741	0.000291	2.908451	0.492705	-0.005816
1128	5.6350e-01	8.7268	11.291445	-0.000047	-0.470485	-0.079702	0.000941
1129	5.6400e-01	8.7170	11.275196	0.000163	1.625311	0.275335	-0.003250
1130	5.6450e-01	8.7061	11.245689	0.000295	2.951222	0.499951	-0.005901
1131	5.6500e-01	8.6932	11.232861	0.000128	1.283140	0.217370	-0.002566
1132	5.6550e-01	8.6841	11.190953	0.000419	4.191591	0.710075	-0.008381
1133	5.6600e-01	8.6755	11.192664	-0.000017	-0.171085	-0.028983	0.000342
1134	5.6650e-01	8.6655	11.159309	0.000334	3.336164	0.565162	-0.006671
1135	5.6700e-01	8.6548	11.144342	0.000150	1.496997	0.253598	-0.002993
1136	5.6750e-01	8.6459	11.108849	0.000355	3.550021	0.601390	-0.007099
1137	5.6800e-01	8.6343	11.121251	-0.000124	-1.240369	-0.210124	0.002480
1138	5.6850e-01	8.6279	11.088323	0.000329	3.293393	0.557916	-0.006585
1139	5.6900e-01	8.6163	11.063521	0.000248	2.480738	0.420248	-0.004960
1140	5.6950e-01	8.6041	11.044706	0.000188	1.881939	0.318809	-0.003763
1141	5.7000e-01	8.5962	11.036581	0.000081	0.812655	0.137668	-0.001625
1142	5.7050e-01	8.5843	11.013061	0.000235	2.352424	0.398511	-0.004704
1143	5.7100e-01	8.5767	10.985266	0.000278	2.780137	0.470968	-0.005559
1144	5.7150e-01	8.5651	10.966023	0.000192	1.924710	0.326055	-0.003849
1145	5.7200e-01	8.5547	10.957042	0.000090	0.898198	0.152159	-0.001796
1146	5.7250e-01	8.5449	10.930530	0.000265	2.651823	0.449231	-0.005303
1147	5.7300e-01	8.5382	10.901879	0.000287	2.865680	0.485459	-0.005730
1148	5.7350e-01	8.5257	10.890333	0.000115	1.154826	0.195633	-0.002309
1149	5.7400e-01	8.5156	10.865103	0.000252	2.523509	0.427494	-0.005046
1150	5.7450e-01	8.5071	10.831321	0.000338	3.378936	0.572407	-0.006756
1151	5.7500e-01	8.4967	10.818919	0.000124	1.240369	0.210124	-0.002480
1152	5.7550e-01	8.4866	10.802242	0.000167	1.668082	0.282581	-0.003335
1153	5.7600e-01	8.4753	10.786848	0.000154	1.539768	0.260844	-0.003079
1154	5.7650e-01	8.4674	10.758197	0.000287	2.865680	0.485459	-0.005730
1155	5.7700e-01	8.4564	10.751782	0.000064	0.641570	0.108685	-0.001283
1156	5.7750e-01	8.4473	10.729973	0.000218	2.181338	0.369529	-0.004362
1157	5.7800e-01	8.4366	10.699612	0.000304	3.036765	0.514442	-0.006072
1158	5.7850e-01	8.4253	10.686783	0.000128	1.283140	0.217370	-0.002566
1159	5.7900e-01	8.4161	10.660270	0.000265	2.651823	0.449231	-0.005303
1160	5.7950e-01	8.4076	10.646586	0.000137	1.368683	0.231861	-0.002737
1161	5.8000e-01	8.3942	10.613232	0.000334	3.336164	0.565162	-0.006671
1162	5.8050e-01	8.3887	10.608955	0.000043	0.427713	0.072457	-0.000855
1163	5.8100e-01	8.3746	10.582015	0.000269	2.694594	0.456477	-0.005388
1164	5.8150e-01	8.3667	10.567476	0.000145	1.454225	0.246352	-0.002908
1165	5.8200e-01	8.3575	10.546950	0.000205	2.053024	0.347792	-0.004105
1166	5.8250e-01	8.3459	10.513167	0.000338	3.378936	0.572407	-0.006756
1167	5.8300e-01	8.3395	10.490076	0.000231	2.309652	0.391266	-0.004618
1168	5.8350e-01	8.3258	10.478102	0.000120	1.197597	0.202879	-0.002395
1169	5.8400e-01	8.3160	10.454155	0.000240	2.395195	0.405757	-0.004789
1170	5.8450e-01	8.3057	10.444320	0.000098	0.983741	0.166650	-0.001967
1171	5.8500e-01	8.2971	10.401130	0.000432	4.319905	0.731812	-0.008638
1172	5.8550e-01	8.2855	10.410965	-0.000098	-0.983741	-0.166650	0.001967
1173	5.8600e-01	8.2788	10.375044	0.000359	3.592792	0.608636	-0.007184
1174	5.8650e-01	8.2651	10.348532	0.000265	2.651823	0.449231	-0.005303
1175	5.8700e-01	8.2544	10.342973	0.000056	0.556027	0.094194	-0.001112
1176	5.8750e-01	8.2458	10.336131	0.000068	0.684341	0.115931	-0.001368
1177	5.8800e-01	8.2361	10.293796	0.000423	4.234362	0.717320	-0.008467
1178	5.8850e-01	8.2272	10.263862	0.000299	2.993994	0.507196	-0.005987
1179	5.8900e-01	8.2153	10.251033	0.000128	1.283140	0.217370	-0.002566
1180	5.8950e-01	8.2062	10.216823	0.000342	3.421707	0.579653	-0.006842
1181	5.9000e-01	8.1958	10.209981	0.000068	0.684341	0.115931	-0.001368
1182	5.9050e-01	8.1866	10.203994	0.000060	0.598799	0.101439	-0.001197
1183	5.9100e-01	8.1763	10.162942	0.000411	4.106048	0.695583	-0.008210
1184	5.9150e-01	8.1671	10.144554	0.000184	1.839168	0.311563	-0.003678
1185	5.9200e-01	8.1580	10.138140	0.000064	0.641570	0.108685	-0.001283
1186	5.9250e-01	8.1470	10.094095	0.000441	4.405448	0.746303	-0.008809
1187	5.9300e-01	8.1372	10.085970	0.000081	0.812655	0.137668	-0.001625
1188	5.9350e-01	8.1274	10.052187	0.000338	3.378936	0.572407	-0.006756
1189	5.9400e-01	8.1171	10.041497	0.000107	1.069283	0.181142	-0.002138
1190	5.9450e-01	8.1061	10.020971	0.000205	2.053024	0.347792	-0.004105
1191	5.9500e-01	8.0981	9.994030	0.000269	2.694594	0.456477	-0.005388
1192	5.9550e-01	8.0849	9.981202	0.000128	1.283140	0.217370	-0.002566
1193	5.9600e-01	8.0750	9.948702	0.000325	3.250622	0.550670	-0.006500
1194	5.9650e-01	8.0652	9.919196	0.000295	2.951222	0.499951	-0.005901
1195	5.9700e-01	8.0560	9.913209	0.000060	0.598799	0.101439	-0.001197
1196	5.9750e-01	8.0438	9.889690	0.000235	2.352424	0.398511	-0.004704
1197	5.9800e-01	8.0374	9.866170	0.000235	2.352424	0.398511	-0.004704
1198	5.9850e-01	8.0267	9.856763	0.000094	0.940969	0.159405	-0.001882
1199	5.9900e-01	8.0164	9.829822	0.000269	2.694594	0.456477	-0.005388
1200	5.9950e-01	8.0072	9.805448	0.000244	2.437966	0.413003	-0.004875
1201	6.0000e-01	7.9950	9.796040	0.000094	0.940969	0.159405	-0.001882
1202	6.0050e-01	7.9895	9.772948	0.000231	2.309652	0.391266	-0.004618
1203	6.0100e-01	7.9773	9.745580	0.000274	2.737366	0.463722	-0.005474
1204	6.0150e-01	7.9657	9.718640	0.000269	2.694594	0.456477	-0.005388
1205	6.0200e-01	7.9547	9.698969	0.000197	1.967482	0.333300	-0.003934
1206	6.0250e-01	7.9462	9.667325	0.000317	3.165079	0.536179	-0.006329
1207	6.0300e-01	7.9376	9.658772	0.000086	0.855427	0.144913	-0.001711
1208	6.0350e-01	7.9254	9.627555	0.000312	3.122308	0.528933	-0.006243
1209	6.0400e-01	7.9153	9.636536	-0.000090	-0.898198	-0.152159	0.001796
1210	6.0450e-01	7.9063	9.590352	0.000462	4.619305	0.782531	-0.009237
1211	6.0500e-01	7.9022	9.567260	0.000231	2.309652	0.391266	-0.004618
1212	6.0550e-01	7.8840	9.561274	0.000060	0.598799	0.101439	-0.001197
1213	6.0600e-01	7.8760	9.543741	0.000175	1.753625	0.297072	-0.003507
1214	6.0650e-01	7.8665	9.518939	0.000248	2.480738	0.420248	-0.004960
1215	6.0700e-01	7.8558	9.503544	0.000154	1.539768	0.260844	-0.003079
1216	6.0750e-01	7.8461	9.474466	0.000291	2.908451	0.492705	-0.005816
1217	6.0800e-01	7.8369	9.450519	0.000240	2.395195	0.405757	-0.004789
1218	6.0850e-01	7.8278	9.417164	0.000334	3.336164	0.565162	-0.006671
1219	6.0900e-01	7.8174	9.401769	0.000154	1.539768	0.260844	-0.003079
1220	6.0950e-01	7.8082	9.384237	0.000175	1.753625	0.297072	-0.003507
1221	6.1000e-01	7.7936	9.365421	0.000188	1.881939	0.318809	-0.003763
1222	6.1050e-01	7.7856	9.339764	0.000257	2.566280	0.434740	-0.005132
1223	6.1100e-01	7.7774	9.319665	0.000201	2.010253	0.340546	-0.004020
1224	6.1150e-01	7.7631	9.285455	0.000342	3.421707	0.579653	-0.006842
1225	6.1200e-01	7.7570	9.272626	0.000128	1.283140	0.217370	-0.002566
1226	6.1250e-01	7.7460	9.240127	0.000325	3.250622	0.550670	-0.006500
1227	6.1300e-01	7.7338	9.245258	-0.000051	-0.513256	-0.086948	0.001026
1228	6.1350e-01	7.7252	9.206345	0.000389	3.892192	0.659355	-0.007783
1229	6.1400e-01	7.7151	9.190950	0.000154	1.539768	0.260844	-0.003079
1230	6.1450e-01	7.7058	9.164437	0.000265	2.651823	0.449231	-0.005303
1231	6.1500e-01	7.6979	9.150753	0.000137	1.368683	0.231861	-0.002737
1232	6.1550e-01	7.6880	9.118681	0.000321	3.207850	0.543425	-0.006414
1233	6.1600e-01	7.6776	9.106708	0.000120	1.197597	0.202879	-0.002395
1234	6.1650e-01	7.6651	9.086182	0.000205	2.053024	0.347792	-0.004105
1235	6.1700e-01	7.6553	9.061807	0.000244	2.437966	0.413003	-0.004875
1236	6.1750e-01	7.6471	9.040426	0.000214	2.138567	0.362283	-0.004276
1237	6.1800e-01	7.6355	9.006216	0.000342	3.421707	0.579653	-0.006842
1238	6.1850e-01	7.6265	8.985690	0.000205	2.053024	0.347792	-0.004105
1239	6.1900e-01	7.6144	8.973289	0.000124	1.240369	0.210124	-0.002480
1240	6.1950e-01	7.6050	8.956184	0.000171	1.710854	0.289826	-0.003421
1241	6.2000e-01	7.5958	8.931381	0.000248	2.480738	0.420248	-0.004960
1242	6.2050e-01	7.5885	8.895889	0.000355	3.550021	0.601390	-0.007099
1243	6.2100e-01	7.5751	8.890757	0.000051	0.513256	0.086948	-0.001026
1244	6.2150e-01	7.5659	8.852271	0.000385	3.849420	0.652109	-0.007697
1245	6.2200e-01	7.5549	8.871942	-0.000197	-1.967482	-0.333300	0.003934
1246	6.2250e-01	7.5464	8.818061	0.000539	5.389189	0.912953	-0.010776
1247	6.2300e-01	7.5342	8.804804	0.000133	1.325911	0.224615	-0.002651
1248	6.2350e-01	7.5275	8.765035	0.000398	3.977734	0.673846	-0.007954
1249	6.2400e-01	7.5156	8.760331	0.000047	0.470485	0.079702	-0.000941
1250	6.2450e-01	7.5043	8.739378	0.000210	2.095796	0.355037	-0.004191
1251	6.2500e-01	7.4939	8.710299	0.000291	2.908451	0.492705	-0.005816
1252	6.2550e-01	7.4854	8.691484	0.000188	1.881939	0.318809	-0.003763
1253	6.2600e-01	7.4768	8.653425	0.000381	3.806649	0.644864	-0.007612
1254	6.2650e-01	7.4664	8.641024	0.000124	1.240369	0.210124	-0.002480
1255	6.2700e-01	7.4545	8.608952	0.000321	3.207850	0.543425	-0.006414
1256	6.2750e-01	7.4451	8.596123	0.000128	1.283140	0.217370	-0.002566
1257	6.2800e-01	7.4396	8.590992	0.000051	0.513256	0.086948	-0.001026
1258	6.2850e-01	7.4255	8.551650	0.000393	3.934963	0.666601	-0.007868
1259	6.2900e-01	7.4139	8.542670	0.000090	0.898198	0.152159	-0.001796
1260	6.2950e-01	7.4042	8.525993	0.000167	1.668082	0.282581	-0.003335
1261	6.3000e-01	7.3944	8.472540	0.000535	5.346417	0.905708	-0.010691
1262	6.3050e-01	7.3853	8.469119	0.000034	0.342171	0.057965	-0.000684
1263	6.3100e-01	7.3749	8.437902	0.000312	3.122308	0.528933	-0.006243
1264	6.3150e-01	7.3657	8.422507	0.000154	1.539768	0.260844	-0.003079
1265	6.3200e-01	7.3578	8.402837	0.000197	1.967482	0.333300	-0.003934
1266	6.3250e-01	7.3462	8.372475	0.000304	3.036765	0.514442	-0.006072
1267	6.3300e-01	7.3340	8.360502	0.000120	1.197597	0.202879	-0.002395
1268	6.3350e-01	7.3273	8.336127	0.000244	2.437966	0.413003	-0.004875
1269	6.3400e-01	7.3175	8.292082	0.000441	4.405448	0.746303	-0.008809
1270	6.3450e-01	7.3065	8.286950	0.000051	0.513256	0.086948	-0.001026
1271	6.3500e-01	7.2949	8.268990	0.000180	1.796396	0.304318	-0.003592
1272	6.3550e-01	7.2864	8.254023	0.000150	1.496997	0.253598	-0.002993
1273	6.3600e-01	7.2772	8.218530	0.000355	3.550021	0.601390	-0.007099
1274	6.3650e-01	7.2650	8.199287	0.000192	1.924710	0.326055	-0.003849
1275	6.3700e-01	7.2577	8.177051	0.000222	2.224110	0.376774	-0.004447
1276	6.3750e-01	7.2449	8.162511	0.000145	1.454225	0.246352	-0.002908
1277	6.3800e-01	7.2391	8.135998	0.000265	2.651823	0.449231	-0.005303
1278	6.3850e-01	7.2247	8.110341	0.000257	2.566280	0.434740	-0.005132
1279	6.3900e-01	7.2156	8.077841	0.000325	3.250622	0.550670	-0.006500
1280	6.3950e-01	7.2040	8.059454	0.000184	1.839168	0.311563	-0.003678
1281	6.4000e-01	7.1991	8.047052	0.000124	1.240369	0.210124	-0.002480
1282	6.4050e-01	7.1844	8.038500	0.000086	0.855427	0.144913	-0.001711
1283	6.4100e-01	7.1738	8.001724	0.000368	3.678335	0.623127	-0.007355
1284	6.4150e-01	7.1661	7.976922	0.000248	2.480738	0.420248	-0.004960
1285	6.4200e-01	7.1570	7.961527	0.000154	1.539768	0.260844	-0.003079
1286	6.4250e-01	7.1478	7.946988	0.000145	1.454225	0.246352	-0.002908
1287	6.4300e-01	7.1381	7.911068	0.000359	3.592792	0.608636	-0.007184
1288	6.4350e-01	7.1252	7.890114	0.000210	2.095796	0.355037	-0.004191
1289	6.4400e-01	7.1191	7.869588	0.000205	2.053024	0.347792	-0.004105
1290	6.4450e-01	7.1057	7.835378	0.000342	3.421707	0.579653	-0.006842
1291	6.4500e-01	7.0953	7.821266	0.000141	1.411454	0.239107	-0.002822
1292	6.4550e-01	7.0844	7.796892	0.000244	2.437966	0.413003	-0.004875
1293	6.4600e-01	7.0764	7.770379	0.000265	2.651823	0.449231	-0.005303
1294	6.4650e-01	7.0654	7.741300	0.000291	2.908451	0.492705	-0.005816
1295	6.4700e-01	7.0557	7.730182	0.000111	1.112055	0.188387	-0.002224
1296	6.4750e-01	7.0465	7.711794	0.000184	1.839168	0.311563	-0.003678
1297	6.4800e-01	7.0351	7.681005	0.000308	3.079536	0.521688	-0.006158
1298	6.4850e-01	7.0279	7.670315	0.000107	1.069283	0.181142	-0.002138
1299	6.4900e-01	7.0160	7.633111	0.000372	3.721106	0.630372	-0.007441
1300	6.4950e-01	7.0056	7.613013	0.000201	2.010253	0.340546	-0.004020
1301	6.5000e-01	6.9952	7.597618	0.000154	1.539768	0.260844	-0.003079
1302	6.5050e-01	6.9849	7.577520	0.000201	2.010253	0.340546	-0.004020
1303	6.5100e-01	6.9778	7.539889	0.000376	3.763878	0.637618	-0.007526
1304	6.5150e-01	6.9666	7.519790	0.000201	2.010253	0.340546	-0.004020
1305	6.5200e-01	6.9562	7.494561	0.000252	2.523509	0.427494	-0.005046
1306	6.5250e-01	6.9441	7.476600	0.000180	1.796396	0.304318	-0.003592
1307	6.5300e-01	6.9348	7.455219	0.000214	2.138567	0.362283	-0.004276
1308	6.5350e-01	6.9238	7.431700	0.000235	2.352424	0.398511	-0.004704
1309	6.5400e-01	6.9159	7.415450	0.000163	1.625311	0.275335	-0.003250
1310	6.5450e-01	6.9080	7.390220	0.000252	2.523509	0.427494	-0.005046
1311	6.5500e-01	6.8970	7.368411	0.000218	2.181338	0.369529	-0.004362
1312	6.5550e-01	6.8848	7.345319	0.000231	2.309652	0.391266	-0.004618
1313	6.5600e-01	6.8762	7.301702	0.000436	4.362676	0.739057	-0.008724
1314	6.5650e-01	6.8668	7.297425	0.000043	0.427713	0.072457	-0.000855
1315	6.5700e-01	6.8582	7.271340	0.000261	2.609052	0.441985	-0.005217
1316	6.5750e-01	6.8567	7.282458	-0.000111	-1.112055	-0.188387	0.002224
1317	6.5800e-01	6.8372	7.223019	0.000595	5.945216	1.007147	-0.011888
1318	6.5850e-01	6.8250	7.201210	0.000218	2.181338	0.369529	-0.004362
1319	6.5900e-01	6.8146	7.169993	0.000312	3.122308	0.528933	-0.006243
1320	6.5950e-01	6.8073	7.161013	0.000090	0.898198	0.152159	-0.001796
1321	6.6000e-01	6.7963	7.146046	0.000150	1.496997	0.253598	-0.002993
1322	6.6050e-01	6.7834	7.118678	0.000274	2.737366	0.463722	-0.005474
1323	6.6100e-01	6.7767	7.090882	0.000278	2.780137	0.470968	-0.005559
1324	6.6150e-01	6.7651	7.069501	0.000214	2.138567	0.362283	-0.004276
1325	6.6200e-01	6.7542	7.041705	0.000278	2.780137	0.470968	-0.005559
1326	6.6250e-01	6.7469	7.011772	0.000299	2.993994	0.507196	-0.005987
1327	6.6300e-01	6.7340	7.005357	0.000064	0.641570	0.108685	-0.001283
1328	6.6350e-01	6.7261	6.975423	0.000299	2.993994	0.507196	-0.005987
1329	6.6400e-01	6.7163	6.944207	0.000312	3.122308	0.528933	-0.006243
1330	6.6450e-01	6.7065	6.938648	0.000056	0.556027	0.094194	-0.001112
1331	6.6500e-01	6.6962	6.891609	0.000470	4.704847	0.797023	-0.009408
1332	6.6550e-01	6.6858	6.874504	0.000171	1.710854	0.289826	-0.003421
1333	6.6600e-01	6.6742	6.859109	0.000154	1.539768	0.260844	-0.003079
1334	6.6650e-01	6.6676	6.844570	0.000145	1.454225	0.246352	-0.002908
1335	6.6700e-01	6.6541	6.820196	0.000244	2.437966	0.413003	-0.004875
1336	6.6750e-01	6.6441	6.801380	0.000188	1.881939	0.318809	-0.003763
1337	6.6800e-01	6.6370	6.774867	0.000265	2.651823	0.449231	-0.005303
1338	6.6850e-01	6.6260	6.734243	0.000406	4.063277	0.688338	-0.008125
1339	6.6900e-01	6.6162	6.720131	0.000141	1.411454	0.239107	-0.002822
1340	6.6950e-01	6.6068	6.700033	0.000201	2.010253	0.340546	-0.004020
1341	6.7000e-01	6.5942	6.690625	0.000094	0.940969	0.159405	-0.001882
1342	6.7050e-01	6.5851	6.656843	0.000338	3.378936	0.572407	-0.006756
1343	6.7100e-01	6.5741	6.633751	0.000231	2.309652	0.391266	-0.004618
1344	6.7150e-01	6.5665	6.617929	0.000158	1.582540	0.268089	-0.003164
1345	6.7200e-01	6.5570	6.586712	0.000312	3.122308	0.528933	-0.006243
1346	6.7250e-01	6.5474	6.567469	0.000192	1.924710	0.326055	-0.003849
1347	6.7300e-01	6.5369	6.527700	0.000398	3.977734	0.673846	-0.007954
1348	6.7350e-01	6.5234	6.509312	0.000184	1.839168	0.311563	-0.003678
1349	6.7400e-01	6.5164	6.488786	0.000205	2.053024	0.347792	-0.004105
1350	6.7450e-01	6.5033	6.480233	0.000086	0.855427	0.144913	-0.001711
1351	6.7500e-01	6.4967	6.450300	0.000299	2.993994	0.507196	-0.005987
1352	6.7550e-01	6.4862	6.402406	0.000479	4.790390	0.811514	-0.009579
1353	6.7600e-01	6.4752	6.398985	0.000034	0.342171	0.057965	-0.000684
1354	6.7650e-01	6.4673	6.364347	0.000346	3.464478	0.586899	-0.006928
1355	6.7700e-01	6.4532	6.368623	-0.000043	-0.427713	-0.072457	0.000855
1356	6.7750e-01	6.4447	6.320729	0.000479	4.790390	0.811514	-0.009579
1357	6.7800e-01	6.4359	6.295499	0.000252	2.523509	0.427494	-0.005046
1358	6.7850e-01	6.4246	6.289085	0.000064	0.641570	0.108685	-0.001283
1359	6.7900e-01	6.4166	6.251454	0.000376	3.763878	0.637618	-0.007526
1360	6.7950e-01	6.4050	6.233921	0.000175	1.753625	0.297072	-0.003507
1361	6.8000e-01	6.3953	6.223658	0.000103	1.026512	0.173896	-0.002053
1362	6.8050e-01	6.3867	6.181751	0.000419	4.191591	0.710075	-0.008381
1363	6.8100e-01	6.3751	6.158232	0.000235	2.352424	0.398511	-0.004704
1364	6.8150e-01	6.3696	6.124449	0.000338	3.378936	0.572407	-0.006756
1365	6.8200e-01	6.3562	6.101357	0.000231	2.309652	0.391266	-0.004618
1366	6.8250e-01	6.3443	6.098792	0.000026	0.256628	0.043474	-0.000513
1367	6.8300e-01	6.3373	6.067575	0.000312	3.122308	0.528933	-0.006243
1368	6.8350e-01	6.3249	6.048760	0.000188	1.881939	0.318809	-0.003763
1369	6.8400e-01	6.3147	6.017543	0.000312	3.122308	0.528933	-0.006243
1370	6.8450e-01	6.3049	6.003431	0.000141	1.411454	0.239107	-0.002822
1371	6.8500e-01	6.2946	6.005569	-0.000021	-0.213857	-0.036228	0.000428
1372	6.8550e-01	6.2848	5.951261	0.000543	5.431960	0.920199	-0.010862
1373	6.8600e-01	6.2762	5.924321	0.000269	2.694594	0.456477	-0.005388
1374	6.8650e-01	6.2659	5.896953	0.000274	2.737366	0.463722	-0.005474
1375	6.8700e-01	6.2549	5.890538	0.000064	0.641570	0.108685	-0.001283
1376	6.8750e-01	6.2459	5.867446	0.000231	2.309652	0.391266	-0.004618
1377	6.8800e-01	6.2372	5.841361	0.000261	2.609052	0.441985	-0.005217
1378	6.8850e-01	6.2250	5.812283	0.000291	2.908451	0.492705	-0.005816
1379	6.8900e-01	6.2170	5.784915	0.000274	2.737366	0.463722	-0.005474
1380	6.8950e-01	6.2067	5.766099	0.000188	1.881939	0.318809	-0.003763
1381	6.9000e-01	6.1951	5.743863	0.000222	2.224110	0.376774	-0.004447
1382	6.9050e-01	6.1847	5.701528	0.000423	4.234362	0.717320	-0.008467
1383	6.9100e-01	6.1743	5.698962	0.000026	0.256628	0.043474	-0.000513
1384	6.9150e-01	6.1658	5.670739	0.000282	2.822908	0.478214	-0.005645
1385	6.9200e-01	6.1554	5.655772	0.000150	1.496997	0.253598	-0.002993
1386	6.9250e-01	6.1450	5.615147	0.000406	4.063277	0.688338	-0.008125
1387	6.9300e-01	6.1356	5.604457	0.000107	1.069283	0.181142	-0.002138
1388	6.9350e-01	6.1267	5.566826	0.000376	3.763878	0.637618	-0.007526
1389	6.9400e-01	6.1169	5.555708	0.000111	1.112055	0.188387	-0.002224
1390	6.9450e-01	6.1047	5.525346	0.000304	3.036765	0.514442	-0.006072
1391	6.9500e-01	6.0959	5.488998	0.000364	3.635564	0.615881	-0.007270
1392	6.9550e-01	6.0861	5.474031	0.000150	1.496997	0.253598	-0.002993
1393	6.9600e-01	6.0785	5.449229	0.000248	2.480738	0.420248	-0.004960
1394	6.9650e-01	6.0664	5.429986	0.000192	1.924710	0.326055	-0.003849
1395	6.9700e-01	6.0549	5.401762	0.000282	2.822908	0.478214	-0.005645
1396	6.9750e-01	6.0477	5.373967	0.000278	2.780137	0.470968	-0.005559
1397	6.9800e-01	6.0352	5.351730	0.000222	2.224110	0.376774	-0.004447
1398	6.9850e-01	6.0269	5.337191	0.000145	1.454225	0.246352	-0.002908
1399	6.9900e-01	6.0150	5.307257	0.000299	2.993994	0.507196	-0.005987
1400	6.9950e-01	6.0046	5.285876	0.000214	2.138567	0.362283	-0.004276
1401	7.0000e-01	5.9961	5.260219	0.000257	2.566280	0.434740	-0.005132
1402	7.0050e-01	5.9845	5.226864	0.000334	3.336164	0.565162	-0.006671
1403	7.0100e-01	5.9778	5.213180	0.000137	1.368683	0.231861	-0.002737
1404	7.0150e-01	5.9634	5.199923	0.000133	1.325911	0.224615	-0.002651
1405	7.0200e-01	5.9552	5.172128	0.000278	2.780137	0.470968	-0.005559
1406	7.0250e-01	5.9497	5.137062	0.000351	3.507250	0.594144	-0.007013
1407	7.0300e-01	5.9360	5.100714	0.000364	3.635564	0.615881	-0.007270
1408	7.0350e-01	5.9259	5.079761	0.000210	2.095796	0.355037	-0.004191
1409	7.0400e-01	5.9119	5.042130	0.000376	3.763878	0.637618	-0.007526
1410	7.0450e-01	5.9067	5.042130	-0.000000	-0.000000	-0.000000	0.000000
1411	7.0500e-01	5.8978	5.012196	0.000299	2.993994	0.507196	-0.005987
1412	7.0550e-01	5.8862	4.991242	0.000210	2.095796	0.355037	-0.004191
1413	7.0600e-01	5.8746	4.967295	0.000240	2.395195	0.405757	-0.004789
1414	7.0650e-01	5.8658	4.933940	0.000334	3.336164	0.565162	-0.006671
1415	7.0700e-01	5.8548	4.928809	0.000051	0.513256	0.086948	-0.001026
1416	7.0750e-01	5.8469	4.903579	0.000252	2.523509	0.427494	-0.005046
1417	7.0800e-01	5.8376	4.869369	0.000342	3.421707	0.579653	-0.006842
1418	7.0850e-01	5.8252	4.855257	0.000141	1.411454	0.239107	-0.002822
1419	7.0900e-01	5.8163	4.810784	0.000445	4.448219	0.753549	-0.008895
1420	7.0950e-01	5.8038	4.812067	-0.000013	-0.128314	-0.021737	0.000257
1421	7.1000e-01	5.7954	4.782989	0.000291	2.908451	0.492705	-0.005816
1422	7.1050e-01	5.7861	4.753483	0.000295	2.951222	0.499951	-0.005901
1423	7.1100e-01	5.7764	4.720555	0.000329	3.293393	0.557916	-0.006585
1424	7.1150e-01	5.7657	4.696608	0.000240	2.395195	0.405757	-0.004789
1425	7.1200e-01	5.7556	4.687628	0.000090	0.898198	0.152159	-0.001796
1426	7.1250e-01	5.7471	4.661543	0.000261	2.609052	0.441985	-0.005217
1427	7.1300e-01	5.7362	4.627761	0.000338	3.378936	0.572407	-0.006756
1428	7.1350e-01	5.7251	4.605097	0.000227	2.266881	0.384020	-0.004533
1429	7.1400e-01	5.7156	4.573880	0.000312	3.122308	0.528933	-0.006243
1430	7.1450e-01	5.7083	4.546512	0.000274	2.737366	0.463722	-0.005474
1431	7.1500e-01	5.6952	4.525131	0.000214	2.138567	0.362283	-0.004276
1432	7.1550e-01	5.6848	4.509736	0.000154	1.539768	0.260844	-0.003079
1433	7.1600e-01	5.6760	4.467401	0.000423	4.234362	0.717320	-0.008467
1434	7.1650e-01	5.6653	4.467829	-0.000004	-0.042771	-0.007246	0.000086
1435	7.1700e-01	5.6575	4.428060	0.000398	3.977734	0.673846	-0.007954
1436	7.1750e-01	5.6464	4.410955	0.000171	1.710854	0.289826	-0.003421
1437	7.1800e-01	5.6348	4.382304	0.000287	2.865680	0.485459	-0.005730
1438	7.1850e-01	5.6238	4.360495	0.000218	2.181338	0.369529	-0.004362
1439	7.1900e-01	5.6143	4.335265	0.000252	2.523509	0.427494	-0.005046
1440	7.1950e-01	5.6046	4.305759	0.000295	2.951222	0.499951	-0.005901
1441	7.2000e-01	5.5957	4.272404	0.000334	3.336164	0.565162	-0.006671
1442	7.2050e-01	5.5841	4.264707	0.000077	0.769884	0.130422	-0.001539
1443	7.2100e-01	5.5774	4.227503	0.000372	3.721106	0.630372	-0.007441
1444	7.2150e-01	5.5658	4.201418	0.000261	2.609052	0.441985	-0.005217
1445	7.2200e-01	5.5539	4.180037	0.000214	2.138567	0.362283	-0.004276
1446	7.2250e-01	5.5451	4.167636	0.000124	1.240369	0.210124	-0.002480
1447	7.2300e-01	5.5359	4.138985	0.000287	2.865680	0.485459	-0.005730
1448	7.2350e-01	5.5249	4.117604	0.000214	2.138567	0.362283	-0.004276
1449	7.2400e-01	5.5148	4.087670	0.000299	2.993994	0.507196	-0.005987
1450	7.2450e-01	5.5054	4.084249	0.000034	0.342171	0.057965	-0.000684
1451	7.2500e-01	5.4993	4.034217	0.000500	5.004247	0.847742	-0.010006
1452	7.2550e-01	5.4846	4.010270	0.000240	2.395195	0.405757	-0.004789
1453	7.2600e-01	5.4737	3.984185	0.000261	2.609052	0.441985	-0.005217
1454	7.2650e-01	5.4660	3.962376	0.000218	2.181338	0.369529	-0.004362
1455	7.2700e-01	5.4578	3.932870	0.000295	2.951222	0.499951	-0.005901
1456	7.2750e-01	5.4462	3.906785	0.000261	2.609052	0.441985	-0.005217
1457	7.2800e-01	5.4365	3.886686	0.000201	2.010253	0.340546	-0.004020
1458	7.2850e-01	5.4272	3.852476	0.000342	3.421707	0.579653	-0.006842
1459	7.2900e-01	5.4182	3.836226	0.000163	1.625311	0.275335	-0.003250
1460	7.2950e-01	5.4068	3.810996	0.000252	2.523509	0.427494	-0.005046
1461	7.3000e-01	5.3940	3.795602	0.000154	1.539768	0.260844	-0.003079
1462	7.3050e-01	5.3853	3.771655	0.000240	2.395195	0.405757	-0.004789
1463	7.3100e-01	5.3741	3.728037	0.000436	4.362676	0.739057	-0.008724
1464	7.3150e-01	5.3662	3.718629	0.000094	0.940969	0.159405	-0.001882
1465	7.3200e-01	5.3564	3.687840	0.000308	3.079536	0.521688	-0.006158
1466	7.3250e-01	5.3479	3.657907	0.000299	2.993994	0.507196	-0.005987
1467	7.3300e-01	5.3357	3.643367	0.000145	1.454225	0.246352	-0.002908
1468	7.3350e-01	5.3272	3.622841	0.000205	2.053024	0.347792	-0.004105
1469	7.3400e-01	5.3168	3.587348	0.000355	3.550021	0.601390	-0.007099
1470	7.3450e-01	5.3083	3.559553	0.000278	2.780137	0.470968	-0.005559
1471	7.3500e-01	5.2966	3.548435	0.000111	1.112055	0.188387	-0.002224
1472	7.3550e-01	5.2850	3.505244	0.000432	4.319905	0.731812	-0.008638
1473	7.3600e-01	5.2768	3.489422	0.000158	1.582540	0.268089	-0.003164
1474	7.3650e-01	5.2646	3.474455	0.000150	1.496997	0.253598	-0.002993
1475	7.3700e-01	5.2563	3.434259	0.000402	4.020506	0.681092	-0.008039
1476	7.3750e-01	5.2472	3.418864	0.000154	1.539768	0.260844	-0.003079
1477	7.3800e-01	5.2386	3.392351	0.000265	2.651823	0.449231	-0.005303
1478	7.3850e-01	5.2289	3.346595	0.000458	4.576533	0.775286	-0.009151
1479	7.3900e-01	5.2179	3.322648	0.000240	2.395195	0.405757	-0.004789
1480	7.3950e-01	5.2045	3.313241	0.000094	0.940969	0.159405	-0.001882
1481	7.4000e-01	5.1950	3.289294	0.000240	2.395195	0.405757	-0.004789
1482	7.4050e-01	5.1854	3.261070	0.000282	2.822908	0.478214	-0.005645
1483	7.4100e-01	5.1770	3.218735	0.000423	4.234362	0.717320	-0.008467
1484	7.4150e-01	5.1651	3.217025	0.000017	0.171085	0.028983	-0.000342
1485	7.4200e-01	5.1547	3.192223	0.000248	2.480738	0.420248	-0.004960
1486	7.4250e-01	5.1436	3.163144	0.000291	2.908451	0.492705	-0.005816
1487	7.4300e-01	5.1349	3.135776	0.000274	2.737366	0.463722	-0.005474
1488	7.4350e-01	5.1263	3.112257	0.000235	2.352424	0.398511	-0.004704
1489	7.4400e-01	5.1184	3.090448	0.000218	2.181338	0.369529	-0.004362
1490	7.4450e-01	5.1065	3.039988	0.000505	5.047018	0.854988	-0.010092
1491	7.4500e-01	5.0958	3.007916	0.000321	3.207850	0.543425	-0.006414
1492	7.4550e-01	5.0873	2.979265	0.000287	2.865680	0.485459	-0.005730
1493	7.4600e-01	5.0757	2.990384	-0.000111	-1.112055	-0.188387	0.002224
1494	7.4650e-01	5.0629	2.962160	0.000282	2.822908	0.478214	-0.005645
1495	7.4700e-01	5.0549	2.916832	0.000453	4.533762	0.768040	-0.009066
1496	7.4750e-01	5.0440	2.910418	0.000064	0.641570	0.108685	-0.001283
1497	7.4800e-01	5.0357	2.876635	0.000338	3.378936	0.572407	-0.006756
1498	7.4850e-01	5.0256	2.850978	0.000257	2.566280	0.434740	-0.005132
1499	7.4900e-01	5.0179	2.827886	0.000231	2.309652	0.391266	-0.004618
1500	7.4950e-01	5.0052	2.816340	0.000115	1.154826	0.195633	-0.002309
1501	7.5000e-01	4.9915	2.765880	0.000505	5.047018	0.854988	-0.010092
1502	7.5050e-01	4.9896	2.749203	0.000167	1.668082	0.282581	-0.003335
1503	7.5100e-01	4.9741	2.720980	0.000282	2.822908	0.478214	-0.005645
1504	7.5150e-01	4.9683	2.696605	0.000244	2.437966	0.413003	-0.004875
1505	7.5200e-01	4.9579	2.679500	0.000171	1.710854	0.289826	-0.003421
1506	7.5250e-01	4.9482	2.652560	0.000269	2.694594	0.456477	-0.005388
1507	7.5300e-01	4.9347	2.610225	0.000423	4.234362	0.717320	-0.008467
1508	7.5350e-01	4.9234	2.615784	-0.000056	-0.556027	-0.094194	0.001112
1509	7.5400e-01	4.9152	2.583284	0.000325	3.250622	0.550670	-0.006500
1510	7.5450e-01	4.9054	2.552923	0.000304	3.036765	0.514442	-0.006072
1511	7.5500e-01	4.8969	2.529831	0.000231	2.309652	0.391266	-0.004618
1512	7.5550e-01	4.8872	2.498614	0.000312	3.122308	0.528933	-0.006243
1513	7.5600e-01	4.8752	2.478516	0.000201	2.010253	0.340546	-0.004020
1514	7.5650e-01	4.8660	2.440885	0.000376	3.763878	0.637618	-0.007526
1515	7.5700e-01	4.8608	2.406247	0.000346	3.464478	0.586899	-0.006928
1516	7.5750e-01	4.8439	2.393846	0.000124	1.240369	0.210124	-0.002480
1517	7.5800e-01	4.8340	2.371610	0.000222	2.224110	0.376774	-0.004447
1518	7.5850e-01	4.8273	2.350656	0.000210	2.095796	0.355037	-0.004191
1519	7.5900e-01	4.8146	2.296348	0.000543	5.431960	0.920199	-0.010862
1520	7.5950e-01	4.8047	2.292927	0.000034	0.342171	0.057965	-0.000684
1521	7.6000e-01	4.7964	2.265131	0.000278	2.780137	0.470968	-0.005559
1522	7.6050e-01	4.7852	2.249309	0.000158	1.582540	0.268089	-0.003164
1523	7.6100e-01	4.7760	2.209112	0.000402	4.020506	0.681092	-0.008039
1524	7.6150e-01	4.7681	2.186448	0.000227	2.266881	0.384020	-0.004533
1525	7.6200e-01	4.7556	2.172336	0.000141	1.411454	0.239107	-0.002822
1526	7.6250e-01	4.7473	2.136416	0.000359	3.592792	0.608636	-0.007184
1527	7.6300e-01	4.7348	2.100495	0.000359	3.592792	0.608636	-0.007184
1528	7.6350e-01	4.7269	2.067141	0.000334	3.336164	0.565162	-0.006671
1529	7.6400e-01	4.7186	2.056022	0.000111	1.112055	0.188387	-0.002224
1530	7.6450e-01	4.7072	2.027371	0.000287	2.865680	0.485459	-0.005730
1531	7.6500e-01	4.6951	2.007273	0.000201	2.010253	0.340546	-0.004020
1532	7.6550e-01	4.6869	1.972208	0.000351	3.507250	0.594144	-0.007013
1533	7.6600e-01	4.6756	1.946978	0.000252	2.523509	0.427494	-0.005046
1534	7.6650e-01	4.6658	1.922176	0.000248	2.480738	0.420248	-0.004960
1535	7.6700e-01	4.6558	1.893097	0.000291	2.908451	0.492705	-0.005816
1536	7.6750e-01	4.6463	1.872571	0.000205	2.053024	0.347792	-0.004105
1537	7.6800e-01	4.6356	1.848196	0.000244	2.437966	0.413003	-0.004875
1538	7.6850e-01	4.6265	1.812276	0.000359	3.592792	0.608636	-0.007184
1539	7.6900e-01	4.6158	1.793888	0.000184	1.839168	0.311563	-0.003678
1540	7.6950e-01	4.6045	1.763099	0.000308	3.079536	0.521688	-0.006158
1541	7.7000e-01	4.5978	1.737869	0.000252	2.523509	0.427494	-0.005046
1542	7.7050e-01	4.5865	1.728461	0.000094	0.940969	0.159405	-0.001882
1543	7.7100e-01	4.5755	1.688692	0.000398	3.977734	0.673846	-0.007954
1544	7.7150e-01	4.5673	1.667311	0.000214	2.138567	0.362283	-0.004276
1545	7.7200e-01	4.5541	1.634384	0.000329	3.293393	0.557916	-0.006585
1546	7.7250e-01	4.5466	1.610437	0.000240	2.395195	0.405757	-0.004789
1547	7.7300e-01	4.5367	1.598891	0.000115	1.154826	0.195633	-0.002309
1548	7.7350e-01	4.5270	1.560832	0.000381	3.806649	0.644864	-0.007612
1549	7.7400e-01	4.5160	1.525339	0.000355	3.550021	0.601390	-0.007099
1550	7.7450e-01	4.5068	1.506524	0.000188	1.881939	0.318809	-0.003763
1551	7.7500e-01	4.4952	1.478301	0.000282	2.822908	0.478214	-0.005645
1552	7.7550e-01	4.4873	1.449222	0.000291	2.908451	0.492705	-0.005816
1553	7.7600e-01	4.4745	1.428268	0.000210	2.095796	0.355037	-0.004191
1554	7.7650e-01	4.4672	1.391493	0.000368	3.678335	0.623127	-0.007355
1555	7.7700e-01	4.4580	1.362842	0.000287	2.865680	0.485459	-0.005730
1556	7.7750e-01	4.4434	1.354717	0.000081	0.812655	0.137668	-0.001625
1557	7.7800e-01	4.4360	1.314092	0.000406	4.063277	0.688338	-0.008125
1558	7.7850e-01	4.4238	1.300836	0.000133	1.325911	0.224615	-0.002651
1559	7.7900e-01	4.4168	1.267909	0.000329	3.293393	0.557916	-0.006585
1560	7.7950e-01	4.4031	1.252942	0.000150	1.496997	0.253598	-0.002993
1561	7.8000e-01	4.3930	1.231561	0.000214	2.138567	0.362283	-0.004276
1562	7.8050e-01	4.3839	1.220443	0.000111	1.112055	0.188387	-0.002224
1563	7.8100e-01	4.3759	1.169555	0.000509	5.089789	0.862234	-0.010177
1564	7.8150e-01	4.3649	1.123372	0.000462	4.619305	0.782531	-0.009237
1565	7.8200e-01	4.3538	1.119095	0.000043	0.427713	0.072457	-0.000855
1566	7.8250e-01	4.3465	1.078043	0.000411	4.106048	0.695583	-0.008210
1567	7.8300e-01	4.3375	1.041268	0.000368	3.678335	0.623127	-0.007355
1568	7.8350e-01	4.3262	1.046399	-0.000051	-0.513256	-0.086948	0.001026
1569	7.8400e-01	4.3161	1.001071	0.000453	4.533762	0.768040	-0.009066
1570	7.8450e-01	4.3039	0.991663	0.000094	0.940969	0.159405	-0.001882
1571	7.8500e-01	4.2963	0.942058	0.000496	4.961475	0.840497	-0.009921
1572	7.8550e-01	4.2873	0.912980	0.000291	2.908451	0.492705	-0.005816
1573	7.8600e-01	4.2761	0.906138	0.000068	0.684341	0.115931	-0.001368
1574	7.8650e-01	4.2685	0.882191	0.000240	2.395195	0.405757	-0.004789
1575	7.8700e-01	4.2551	0.840711	0.000415	4.148820	0.702829	-0.008296
1576	7.8750e-01	4.2432	0.817192	0.000235	2.352424	0.398511	-0.004704
1577	7.8800e-01	4.2358	0.784692	0.000325	3.250622	0.550670	-0.006500
1578	7.8850e-01	4.2255	0.760745	0.000240	2.395195	0.405757	-0.004789
1579	7.8900e-01	4.2169	0.739792	0.000210	2.095796	0.355037	-0.004191
1580	7.8950e-01	4.2035	0.717555	0.000222	2.224110	0.376774	-0.004447
1581	7.9000e-01	4.1959	0.674365	0.000432	4.319905	0.731812	-0.008638
1582	7.9050e-01	4.1850	0.660681	0.000137	1.368683	0.231861	-0.002737
1583	7.9100e-01	4.1773	0.629892	0.000308	3.079536	0.521688	-0.006158
1584	7.9150e-01	4.1655	0.596537	0.000334	3.336164	0.565162	-0.006671
1585	7.9200e-01	4.1547	0.572163	0.000244	2.437966	0.413003	-0.004875
1586	7.9250e-01	4.1461	0.550781	0.000214	2.138567	0.362283	-0.004276
1587	7.9300e-01	4.1376	0.535814	0.000150	1.496997	0.253598	-0.002993
1588	7.9350e-01	4.1250	0.490486	0.000453	4.533762	0.768040	-0.009066
1589	7.9400e-01	4.1156	0.463118	0.000274	2.737366	0.463722	-0.005474
1590	7.9450e-01	4.1071	0.446013	0.000171	1.710854	0.289826	-0.003421
1591	7.9500e-01	4.0961	0.410093	0.000359	3.592792	0.608636	-0.007184
1592	7.9550e-01	4.0857	0.384435	0.000257	2.566280	0.434740	-0.005132
1593	7.9600e-01	4.0762	0.365620	0.000188	1.881939	0.318809	-0.003763
1594	7.9650e-01	4.0671	0.338252	0.000274	2.737366	0.463722	-0.005474
1595	7.9700e-01	4.0529	0.311311	0.000269	2.694594	0.456477	-0.005388
1596	7.9750e-01	4.0454	0.271542	0.000398	3.977734	0.673846	-0.007954
1597	7.9800e-01	4.0366	0.251016	0.000205	2.053024	0.347792	-0.004105
1598	7.9850e-01	4.0253	0.234766	0.000163	1.625311	0.275335	-0.003250
1599	7.9900e-01	4.0152	0.202267	0.000325	3.250622	0.550670	-0.006500
1600	7.9950e-01	4.0065	0.168057	0.000342	3.421707	0.579653	-0.006842
1601	8.0000e-01	3.9933	0.159077	0.000090	0.898198	0.152159	-0.001796
1602	8.0050e-01	3.9853	0.131281	0.000278	2.780137	0.470968	-0.005559
1603	8.0100e-01	3.9767	0.089801	0.000415	4.148820	0.702829	-0.008296
1604	8.0150e-01	3.9642	0.064999	0.000248	2.480738	0.420248	-0.004960
1605	8.0200e-01	3.9574	0.047039	0.000180	1.796396	0.304318	-0.003592
1606	8.0250e-01	3.9442	0.009408	0.000376	3.763878	0.637618	-0.007526
1607	8.0300e-01	3.9352	-0.020526	0.000299	2.993994	0.507196	-0.005987
1608	8.0350e-01	3.9252	-0.035493	0.000150	1.496997	0.253598	-0.002993
1609	8.0400e-01	3.9172	-0.080821	0.000453	4.533762	0.768040	-0.009066
1610	8.0450e-01	3.9029	-0.084242	0.000034	0.342171	0.057965	-0.000684
1611	8.0500e-01	3.8947	-0.133419	0.000492	4.918704	0.833251	-0.009835
1612	8.0550e-01	3.8873	-0.146248	0.000128	1.283140	0.217370	-0.002566
1613	8.0600e-01	3.8766	-0.175754	0.000295	2.951222	0.499951	-0.005901
1614	8.0650e-01	3.8656	-0.203122	0.000274	2.737366	0.463722	-0.005474
1615	8.0700e-01	3.8550	-0.233056	0.000299	2.993994	0.507196	-0.005987
1616	8.0750e-01	3.8455	-0.271114	0.000381	3.806649	0.644864	-0.007612
1617	8.0800e-01	3.8339	-0.297627	0.000265	2.651823	0.449231	-0.005303
1618	8.0850e-01	3.8251	-0.319436	0.000218	2.181338	0.369529	-0.004362
1619	8.0900e-01	3.8147	-0.338679	0.000192	1.924710	0.326055	-0.003849
1620	8.0950e-01	3.8095	-0.373744	0.000351	3.507250	0.594144	-0.007013
1621	8.1000e-01	3.7964	-0.394698	0.000210	2.095796	0.355037	-0.004191
1622	8.1050e-01	3.7857	-0.428053	0.000334	3.336164	0.565162	-0.006671
1623	8.1100e-01	3.7732	-0.437033	0.000090	0.898198	0.152159	-0.001796
1624	8.1150e-01	3.7646	-0.482789	0.000458	4.576533	0.775286	-0.009151
1625	8.1200e-01	3.7572	-0.500322	0.000175	1.753625	0.297072	-0.003507
1626	8.1250e-01	3.7463	-0.531966	0.000317	3.165079	0.536179	-0.006329
1627	8.1300e-01	3.7396	-0.564465	0.000325	3.250622	0.550670	-0.006500
1628	8.1350e-01	3.7262	-0.590551	0.000261	2.609052	0.441985	-0.005217
1629	8.1400e-01	3.7164	-0.607656	0.000171	1.710854	0.289826	-0.003421
1630	8.1450e-01	3.7073	-0.635024	0.000274	2.737366	0.463722	-0.005474
1631	8.1500e-01	3.6946	-0.671372	0.000364	3.635564	0.615881	-0.007270
1632	8.1550e-01	3.6868	-0.694463	0.000231	2.309652	0.391266	-0.004618
1633	8.1600e-01	3.6771	-0.733377	0.000389	3.892192	0.659355	-0.007783
1634	8.1650e-01	3.6649	-0.742785	0.000094	0.940969	0.159405	-0.001882
1635	8.1700e-01	3.6557	-0.779989	0.000372	3.721106	0.630372	-0.007441
1636	8.1750e-01	3.6483	-0.806074	0.000261	2.609052	0.441985	-0.005217
1637	8.1800e-01	3.6341	-0.832586	0.000265	2.651823	0.449231	-0.005303
1638	8.1850e-01	3.6270	-0.864658	0.000321	3.207850	0.543425	-0.006414
1639	8.1900e-01	3.6169	-0.882619	0.000180	1.796396	0.304318	-0.003592
1640	8.1950e-01	3.6025	-0.922388	0.000398	3.977734	0.673846	-0.007954
1641	8.2000e-01	3.5956	-0.946335	0.000240	2.395195	0.405757	-0.004789
1642	8.2050e-01	3.5860	-0.979690	0.000334	3.336164	0.565162	-0.006671
1643	8.2100e-01	3.5737	-0.999360	0.000197	1.967482	0.333300	-0.003934
1644	8.2150e-01	3.5651	-1.015610	0.000163	1.625311	0.275335	-0.003250
1645	8.2200e-01	3.5561	-1.073767	0.000582	5.816902	0.985410	-0.011631
1646	8.2250e-01	3.5432	-1.081892	0.000081	0.812655	0.137668	-0.001625
1647	8.2300e-01	3.5345	-1.119523	0.000376	3.763878	0.637618	-0.007526
1648	8.2350e-01	3.5229	-1.129786	0.000103	1.026512	0.173896	-0.002053
1649	8.2400e-01	3.5204	-1.157154	0.000274	2.737366	0.463722	-0.005474
1650	8.2450e-01	3.5065	-1.184950	0.000278	2.780137	0.470968	-0.005559
1651	8.2500e-01	3.4973	-1.217022	0.000321	3.207850	0.543425	-0.006414
1652	8.2550e-01	3.4854	-1.241396	0.000244	2.437966	0.413003	-0.004875
1653	8.2600e-01	3.4745	-1.267054	0.000257	2.566280	0.434740	-0.005132
1654	8.2650e-01	3.4662	-1.308106	0.000411	4.106048	0.695583	-0.008210
1655	8.2700e-01	3.4537	-1.331625	0.000235	2.352424	0.398511	-0.004704
1656	8.2750e-01	3.4459	-1.359848	0.000282	2.822908	0.478214	-0.005645
1657	8.2800e-01	3.4364	-1.408170	0.000483	4.833161	0.818760	-0.009664
1658	8.2850e-01	3.4262	-1.429979	0.000218	2.181338	0.369529	-0.004362
1659	8.2900e-01	3.4183	-1.449222	0.000192	1.924710	0.326055	-0.003849
1660	8.2950e-01	3.4071	-1.479156	0.000299	2.993994	0.507196	-0.005987
1661	8.3000e-01	3.3966	-1.507379	0.000282	2.822908	0.478214	-0.005645
1662	8.3050e-01	3.3857	-1.535175	0.000278	2.780137	0.470968	-0.005559
1663	8.3100e-01	3.3749	-1.563826	0.000287	2.865680	0.485459	-0.005730
1664	8.3150e-01	3.3646	-1.577082	0.000133	1.325911	0.224615	-0.002651
1665	8.3200e-01	3.3546	-1.615996	0.000389	3.892192	0.659355	-0.007783
1666	8.3250e-01	3.3461	-1.644219	0.000282	2.822908	0.478214	-0.005645
1667	8.3300e-01	3.3362	-1.669449	0.000252	2.523509	0.427494	-0.005046
1668	8.3350e-01	3.3272	-1.703231	0.000338	3.378936	0.572407	-0.006756
1669	8.3400e-01	3.3155	-1.719054	0.000158	1.582540	0.268089	-0.003164
1670	8.3450e-01	3.3051	-1.741718	0.000227	2.266881	0.384020	-0.004533
1671	8.3500e-01	3.2948	-1.788757	0.000470	4.704847	0.797023	-0.009408
1672	8.3550e-01	3.2840	-1.809710	0.000210	2.095796	0.355037	-0.004191
1673	8.3600e-01	3.2748	-1.844348	0.000346	3.464478	0.586899	-0.006928
1674	8.3650e-01	3.2669	-1.852045	0.000077	0.769884	0.130422	-0.001539
1675	8.3700e-01	3.2541	-1.895663	0.000436	4.362676	0.739057	-0.008724
1676	8.3750e-01	3.2460	-1.922176	0.000265	2.651823	0.449231	-0.005303
1677	8.3800e-01	3.2339	-1.946550	0.000244	2.437966	0.413003	-0.004875
1678	8.3850e-01	3.2251	-1.978195	0.000317	3.165079	0.536179	-0.006329
1679	8.3900e-01	3.2158	-2.002997	0.000248	2.480738	0.420248	-0.004960
1680	8.3950e-01	3.2043	-2.044476	0.000415	4.148820	0.702829	-0.008296
1681	8.4000e-01	3.1952	-2.066285	0.000218	2.181338	0.369529	-0.004362
1682	8.4050e-01	3.1866	-2.091943	0.000257	2.566280	0.434740	-0.005132
1683	8.4100e-01	3.1726	-2.106054	0.000141	1.411454	0.239107	-0.002822
1684	8.4150e-01	3.1666	-2.149672	0.000436	4.362676	0.739057	-0.008724
1685	8.4200e-01	3.1540	-2.175757	0.000261	2.609052	0.441985	-0.005217
1686	8.4250e-01	3.1464	-2.186876	0.000111	1.112055	0.188387	-0.002224
1687	8.4300e-01	3.1378	-2.245460	0.000586	5.859673	0.992656	-0.011717
1688	8.4350e-01	3.1290	-2.267697	0.000222	2.224110	0.376774	-0.004447
1689	8.4400e-01	3.1152	-2.305328	0.000376	3.763878	0.637618	-0.007526
1690	8.4450e-01	3.1052	-2.317729	0.000124	1.240369	0.210124	-0.002480
1691	8.4500e-01	3.0951	-2.343814	0.000261	2.609052	0.441985	-0.005217
1692	8.4550e-01	3.0856	-2.378024	0.000342	3.421707	0.579653	-0.006842
1693	8.4600e-01	3.0745	-2.399405	0.000214	2.138567	0.362283	-0.004276
1694	8.4650e-01	3.0664	-2.432760	0.000334	3.336164	0.565162	-0.006671
1695	8.4700e-01	3.0579	-2.453714	0.000210	2.095796	0.355037	-0.004191
1696	8.4750e-01	3.0435	-2.478088	0.000244	2.437966	0.413003	-0.004875
1697	8.4800e-01	3.0365	-2.528976	0.000509	5.089789	0.862234	-0.010177
1698	8.4850e-01	3.0252	-2.538811	0.000098	0.983741	0.166650	-0.001967
1699	8.4900e-01	3.0151	-2.584567	0.000458	4.576533	0.775286	-0.009151
1700	8.4950e-01	3.0061	-2.612790	0.000282	2.822908	0.478214	-0.005645
1701	8.5000e-01	2.9976	-2.639303	0.000265	2.651823	0.449231	-0.005303
1702	8.5050e-01	2.9836	-2.664961	0.000257	2.566280	0.434740	-0.005132
1703	8.5100e-01	2.9749	-2.669237	0.000043	0.427713	0.072457	-0.000855
1704	8.5150e-01	2.9657	-2.718841	0.000496	4.961475	0.840497	-0.009921
1705	8.5200e-01	2.9536	-2.735519	0.000167	1.668082	0.282581	-0.003335
1706	8.5250e-01	2.9456	-2.772295	0.000368	3.678335	0.623127	-0.007355
1707	8.5300e-01	2.9352	-2.811209	0.000389	3.892192	0.659355	-0.007783
1708	8.5350e-01	2.9260	-2.844136	0.000329	3.293393	0.557916	-0.006585
1709	8.5400e-01	2.9157	-2.849267	0.000051	0.513256	0.086948	-0.001026
1710	8.5450e-01	2.9034	-2.886043	0.000368	3.678335	0.623127	-0.007355
1711	8.5500e-01	2.8961	-2.927523	0.000415	4.148820	0.702829	-0.008296
1712	8.5550e-01	2.8868	-2.941207	0.000137	1.368683	0.231861	-0.002737
1713	8.5600e-01	2.8726	-2.973706	0.000325	3.250622	0.550670	-0.006500
1714	8.5650e-01	2.8676	-2.980976	0.000073	0.727113	0.123176	-0.001454
1715	8.5700e-01	2.8552	-3.028442	0.000475	4.747619	0.804268	-0.009493
1716	8.5750e-01	2.8442	-3.066928	0.000385	3.849420	0.652109	-0.007697
1717	8.5800e-01	2.8352	-3.081040	0.000141	1.411454	0.239107	-0.002822
1718	8.5850e-01	2.8232	-3.115678	0.000346	3.464478	0.586899	-0.006928
1719	8.5900e-01	2.8151	-3.165282	0.000496	4.961475	0.840497	-0.009921
1720	8.5950e-01	2.8071	-3.174690	0.000094	0.940969	0.159405	-0.001882
1721	8.6000e-01	2.7969	-3.206334	0.000317	3.165079	0.536179	-0.006329
1722	8.6050e-01	2.7864	-3.228998	0.000227	2.266881	0.384020	-0.004533
1723	8.6100e-01	2.7769	-3.262353	0.000334	3.336164	0.565162	-0.006671
1724	8.6150e-01	2.7670	-3.291859	0.000295	2.951222	0.499951	-0.005901
1725	8.6200e-01	2.7536	-3.332911	0.000411	4.106048	0.695583	-0.008210
1726	8.6250e-01	2.7437	-3.340609	0.000077	0.769884	0.130422	-0.001539
1727	8.6300e-01	2.7361	-3.380805	0.000402	4.020506	0.681092	-0.008039
1728	8.6350e-01	2.7240	-3.419292	0.000385	3.849420	0.652109	-0.007697
1729	8.6400e-01	2.7126	-3.431265	0.000120	1.197597	0.202879	-0.002395
1730	8.6450e-01	2.7054	-3.464192	0.000329	3.293393	0.557916	-0.006585
1731	8.6500e-01	2.6951	-3.496692	0.000325	3.250622	0.550670	-0.006500
1732	8.6550e-01	2.6855	-3.527481	0.000308	3.079536	0.521688	-0.006158
1733	8.6600e-01	2.6746	-3.537744	0.000103	1.026512	0.173896	-0.002053
1734	8.6650e-01	2.6660	-3.592052	0.000543	5.431960	0.920199	-0.010862
1735	8.6700e-01	2.6547	-3.610868	0.000188	1.881939	0.318809	-0.003763
1736	8.6750e-01	2.6450	-3.646788	0.000359	3.592792	0.608636	-0.007184
1737	8.6800e-01	2.6372	-3.672018	0.000252	2.523509	0.427494	-0.005046
1738	8.6850e-01	2.6217	-3.692117	0.000201	2.010253	0.340546	-0.004020
1739	8.6900e-01	2.6173	-3.734024	0.000419	4.191591	0.710075	-0.008381
1740	8.6950e-01	2.6067	-3.758826	0.000248	2.480738	0.420248	-0.004960
1741	8.7000e-01	2.5952	-3.791753	0.000329	3.293393	0.557916	-0.006585
1742	8.7050e-01	2.5839	-3.814845	0.000231	2.309652	0.391266	-0.004618
1743	8.7100e-01	2.5764	-3.831522	0.000167	1.668082	0.282581	-0.003335
1744	8.7150e-01	2.5660	-3.863594	0.000321	3.207850	0.543425	-0.006414
1745	8.7200e-01	2.5546	-3.892673	0.000291	2.908451	0.492705	-0.005816
1746	8.7250e-01	2.5435	-3.916192	0.000235	2.352424	0.398511	-0.004704
1747	8.7300e-01	2.5339	-3.951685	0.000355	3.550021	0.601390	-0.007099
1748	8.7350e-01	2.5266	-3.988889	0.000372	3.721106	0.630372	-0.007441
1749	8.7400e-01	2.5125	-4.005138	0.000163	1.625311	0.275335	-0.003250
1750	8.7450e-01	2.5057	-4.054315	0.000492	4.918704	0.833251	-0.009835
1751	8.7500e-01	2.4968	-4.067144	0.000128	1.283140	0.217370	-0.002566
1752	8.7550e-01	2.4854	-4.089808	0.000227	2.266881	0.384020	-0.004533
1753	8.7600e-01	2.4770	-4.154380	0.000646	6.458472	1.094095	-0.012914
1754	8.7650e-01	2.4667	-4.176188	0.000218	2.181338	0.369529	-0.004362
1755	8.7700e-01	2.4557	-4.191155	0.000150	1.496997	0.253598	-0.002993
1756	8.7750e-01	2.4469	-4.237766	0.000466	4.662076	0.789777	-0.009322
1757	8.7800e-01	2.4344	-4.248457	0.000107	1.069283	0.181142	-0.002138
1758	8.7850e-01	2.4252	-4.268128	0.000197	1.967482	0.333300	-0.003934
1759	8.7900e-01	2.4142	-4.311318	0.000432	4.319905	0.731812	-0.008638
1760	8.7950e-01	2.4060	-4.329278	0.000180	1.796396	0.304318	-0.003592
1761	8.8000e-01	2.3944	-4.369903	0.000406	4.063277	0.688338	-0.008125
1762	8.8050e-01	2.3875	-4.397271	0.000274	2.737366	0.463722	-0.005474
1763	8.8100e-01	2.3752	-4.436612	0.000393	3.934963	0.666601	-0.007868
1764	8.8150e-01	2.3650	-4.452434	0.000158	1.582540	0.268089	-0.003164
1765	8.8200e-01	2.3553	-4.496052	0.000436	4.362676	0.739057	-0.008724
1766	8.8250e-01	2.3465	-4.515295	0.000192	1.924710	0.326055	-0.003849
1767	8.8300e-01	2.3346	-4.549078	0.000338	3.378936	0.572407	-0.006756
1768	8.8350e-01	2.3232	-4.561479	0.000124	1.240369	0.210124	-0.002480
1769	8.8400e-01	2.3151	-4.598255	0.000368	3.678335	0.623127	-0.007355
1770	8.8450e-01	2.3075	-4.635886	0.000376	3.763878	0.637618	-0.007526
1771	8.8500e-01	2.2955	-4.676082	0.000402	4.020506	0.681092	-0.008039
1772	8.8550e-01	2.2870	-4.711575	0.000355	3.550021	0.601390	-0.007099
1773	8.8600e-01	2.2763	-4.735095	0.000235	2.352424	0.398511	-0.004704
1774	8.8650e-01	2.2650	-4.762890	0.000278	2.780137	0.470968	-0.005559
1775	8.8700e-01	2.2557	-4.786410	0.000235	2.352424	0.398511	-0.004704
1776	8.8750e-01	2.2470	-4.823185	0.000368	3.678335	0.623127	-0.007355
1777	8.8800e-01	2.2342	-4.855257	0.000321	3.207850	0.543425	-0.006414
1778	8.8850e-01	2.2244	-4.879632	0.000244	2.437966	0.413003	-0.004875
1779	8.8900e-01	2.2134	-4.901441	0.000218	2.181338	0.369529	-0.004362
1780	8.8950e-01	2.2061	-4.936934	0.000355	3.550021	0.601390	-0.007099
1781	8.9000e-01	2.1959	-4.968150	0.000312	3.122308	0.528933	-0.006243
1782	8.9050e-01	2.1866	-4.998939	0.000308	3.079536	0.521688	-0.006158
1783	8.9100e-01	2.1742	-5.012196	0.000133	1.325911	0.224615	-0.002651
1784	8.9150e-01	2.1669	-5.049827	0.000376	3.763878	0.637618	-0.007526
1785	8.9200e-01	2.1565	-5.085747	0.000359	3.592792	0.608636	-0.007184
1786	8.9250e-01	2.1457	-5.111405	0.000257	2.566280	0.434740	-0.005132
1787	8.9300e-01	2.1389	-5.156733	0.000453	4.533762	0.768040	-0.009066
1788	8.9350e-01	2.1262	-5.180253	0.000235	2.352424	0.398511	-0.004704
1789	8.9400e-01	2.1158	-5.194364	0.000141	1.411454	0.239107	-0.002822
1790	8.9450e-01	2.1063	-5.223015	0.000287	2.865680	0.485459	-0.005730
1791	8.9500e-01	2.0946	-5.256798	0.000338	3.378936	0.572407	-0.006756
1792	8.9550e-01	2.0851	-5.296567	0.000398	3.977734	0.673846	-0.007954
1793	8.9600e-01	2.0734	-5.318803	0.000222	2.224110	0.376774	-0.004447
1794	8.9650e-01	2.0680	-5.349592	0.000308	3.079536	0.521688	-0.006158
1795	8.9700e-01	2.0543	-5.393638	0.000441	4.405448	0.746303	-0.008809
1796	8.9750e-01	2.0454	-5.411598	0.000180	1.796396	0.304318	-0.003592
1797	8.9800e-01	2.0337	-5.436400	0.000248	2.480738	0.420248	-0.004960
1798	8.9850e-01	2.0261	-5.469755	0.000334	3.336164	0.565162	-0.006671
1799	8.9900e-01	2.0163	-5.513800	0.000441	4.405448	0.746303	-0.008809
1800	8.9950e-01	2.0061	-5.515511	0.000017	0.171085	0.028983	-0.000342
1801	9.0000e-01	1.9938	-5.575806	0.000603	6.030759	1.021638	-0.012059
1802	9.0050e-01	1.9833	-5.589490	0.000137	1.368683	0.231861	-0.002737
1803	9.0100e-01	1.9742	-5.624555	0.000351	3.507250	0.594144	-0.007013
1804	9.0150e-01	1.9638	-5.643798	0.000192	1.924710	0.326055	-0.003849
1805	9.0200e-01	1.9559	-5.682712	0.000389	3.892192	0.659355	-0.007783
1806	9.0250e-01	1.9436	-5.707942	0.000252	2.523509	0.427494	-0.005046
1807	9.0300e-01	1.9339	-5.740869	0.000329	3.293393	0.557916	-0.006585
1808	9.0350e-01	1.9244	-5.777217	0.000364	3.635564	0.615881	-0.007270
1809	9.0400e-01	1.9150	-5.790474	0.000133	1.325911	0.224615	-0.002651
1810	9.0450e-01	1.9063	-5.829815	0.000393	3.934963	0.666601	-0.007868
1811	9.0500e-01	1.8961	-5.861887	0.000321	3.207850	0.543425	-0.006414
1812	9.0550e-01	1.8867	-5.888400	0.000265	2.651823	0.449231	-0.005303
1813	9.0600e-01	1.8764	-5.951261	0.000629	6.287387	1.065112	-0.012572
1814	9.0650e-01	1.8634	-5.939715	-0.000115	-1.154826	-0.195633	0.002309
1815	9.0700e-01	1.8549	-5.974780	0.000351	3.507250	0.594144	-0.007013
1816	9.0750e-01	1.8486	-6.004286	0.000295	2.951222	0.499951	-0.005901
1817	9.0800e-01	1.8372	-6.031227	0.000269	2.694594	0.456477	-0.005388
1818	9.0850e-01	1.8257	-6.082542	0.000513	5.132561	0.869479	-0.010263
1819	9.0900e-01	1.8182	-6.106917	0.000244	2.437966	0.413003	-0.004875
1820	9.0950e-01	1.8042	-6.134285	0.000274	2.737366	0.463722	-0.005474
1821	9.1000e-01	1.7992	-6.153528	0.000192	1.924710	0.326055	-0.003849
1822	9.1050e-01	1.7851	-6.184317	0.000308	3.079536	0.521688	-0.006158
1823	9.1100e-01	1.7746	-6.236487	0.000522	5.218103	0.883971	-0.010434
1824	9.1150e-01	1.7656	-6.267704	0.000312	3.122308	0.528933	-0.006243
1825	9.1200e-01	1.7557	-6.274546	0.000068	0.684341	0.115931	-0.001368
1826	9.1250e-01	1.7444	-6.317736	0.000432	4.319905	0.731812	-0.008638
1827	9.1300e-01	1.7355	-6.342966	0.000252	2.523509	0.427494	-0.005046
1828	9.1350e-01	1.7229	-6.362636	0.000197	1.967482	0.333300	-0.003934
1829	9.1400e-01	1.7153	-6.419083	0.000565	5.645817	0.956427	-0.011289
1830	9.1450e-01	1.7050	-6.443458	0.000244	2.437966	0.413003	-0.004875
1831	9.1500e-01	1.6947	-6.478523	0.000351	3.507250	0.594144	-0.007013
1832	9.1550e-01	1.6848	-6.506746	0.000282	2.822908	0.478214	-0.005645
1833	9.1600e-01	1.6774	-6.530266	0.000235	2.352424	0.398511	-0.004704
1834	9.1650e-01	1.6669	-6.573456	0.000432	4.319905	0.731812	-0.008638
1835	9.1700e-01	1.6559	-6.599541	0.000261	2.609052	0.441985	-0.005217
1836	9.1750e-01	1.6462	-6.637600	0.000381	3.806649	0.644864	-0.007612
1837	9.1800e-01	1.6361	-6.652139	0.000145	1.454225	0.246352	-0.002908
1838	9.1850e-01	1.6245	-6.683783	0.000317	3.165079	0.536179	-0.006329
1839	9.1900e-01	1.6166	-6.706875	0.000231	2.309652	0.391266	-0.004618
1840	9.1950e-01	1.6039	-6.739374	0.000325	3.250622	0.550670	-0.006500
1841	9.2000e-01	1.5936	-6.767598	0.000282	2.822908	0.478214	-0.005645
1842	9.2050e-01	1.5862	-6.814209	0.000466	4.662076	0.789777	-0.009322
1843	9.2100e-01	1.5749	-6.840294	0.000261	2.609052	0.441985	-0.005217
1844	9.2150e-01	1.5638	-6.857827	0.000175	1.753625	0.297072	-0.003507
1845	9.2200e-01	1.5552	-6.892464	0.000346	3.464478	0.586899	-0.006928
1846	9.2250e-01	1.5430	-6.919832	0.000274	2.737366	0.463722	-0.005474
1847	9.2300e-01	1.5363	-6.968581	0.000488	4.875933	0.826005	-0.009750
1848	9.2350e-01	1.5255	-6.982265	0.000137	1.368683	0.231861	-0.002737
1849	9.2400e-01	1.5157	-7.019041	0.000368	3.678335	0.623127	-0.007355
1850	9.2450e-01	1.5058	-7.059238	0.000402	4.020506	0.681092	-0.008039
1851	9.2500e-01	1.4957	-7.085323	0.000261	2.609052	0.441985	-0.005217
1852	9.2550e-01	1.4850	-7.103711	0.000184	1.839168	0.311563	-0.003678
1853	9.2600e-01	1.4766	-7.142625	0.000389	3.892192	0.659355	-0.007783
1854	9.2650e-01	1.4642	-7.185387	0.000428	4.277134	0.724566	-0.008553
1855	9.2700e-01	1.4523	-7.221308	0.000359	3.592792	0.608636	-0.007184
1856	9.2750e-01	1.4435	-7.255518	0.000342	3.421707	0.579653	-0.006842
1857	9.2800e-01	1.4378	-7.267064	0.000115	1.154826	0.195633	-0.002309
1858	9.2850e-01	1.4255	-7.290583	0.000235	2.352424	0.398511	-0.004704
1859	9.2900e-01	1.4145	-7.313247	0.000227	2.266881	0.384020	-0.004533
1860	9.2950e-01	1.4058	-7.361569	0.000483	4.833161	0.818760	-0.009664
1861	9.3000e-01	1.3956	-7.379529	0.000180	1.796396	0.304318	-0.003592
1862	9.3050e-01	1.3852	-7.431272	0.000518	5.175332	0.876725	-0.010349
1863	9.3100e-01	1.3772	-7.476600	0.000453	4.533762	0.768040	-0.009066
1864	9.3150e-01	1.3646	-7.480449	0.000038	0.384942	0.065211	-0.000770
1865	9.3200e-01	1.3553	-7.509100	0.000287	2.865680	0.485459	-0.005730
1866	9.3250e-01	1.3458	-7.552290	0.000432	4.319905	0.731812	-0.008638
1867	9.3300e-01	1.3371	-7.565546	0.000133	1.325911	0.224615	-0.002651
1868	9.3350e-01	1.3235	-7.611302	0.000458	4.576533	0.775286	-0.009151
1869	9.3400e-01	1.3129	-7.640381	0.000291	2.908451	0.492705	-0.005816
1870	9.3450e-01	1.3042	-7.676729	0.000364	3.635564	0.615881	-0.007270
1871	9.3500e-01	1.2975	-7.712649	0.000359	3.592792	0.608636	-0.007184
1872	9.3550e-01	1.2805	-7.734458	0.000218	2.181338	0.369529	-0.004362
1873	9.3600e-01	1.2752	-7.778076	0.000436	4.362676	0.739057	-0.008724
1874	9.3650e-01	1.2637	-7.799030	0.000210	2.095796	0.355037	-0.004191
1875	9.3700e-01	1.2561	-7.817845	0.000188	1.881939	0.318809	-0.003763
1876	9.3750e-01	1.2449	-7.846069	0.000282	2.822908	0.478214	-0.005645
1877	9.3800e-01	1.2352	-7.881989	0.000359	3.592792	0.608636	-0.007184
1878	9.3850e-01	1.2248	-7.917910	0.000359	3.592792	0.608636	-0.007184
1879	9.3900e-01	1.2173	-7.957679	0.000398	3.977734	0.673846	-0.007954
1880	9.3950e-01	1.2044	-7.988468	0.000308	3.079536	0.521688	-0.006158
1881	9.4000e-01	1.1966	-8.024388	0.000359	3.592792	0.608636	-0.007184
1882	9.4050e-01	1.1868	-8.048763	0.000244	2.437966	0.413003	-0.004875
1883	9.4100e-01	1.1761	-8.080407	0.000317	3.165079	0.536179	-0.006329
1884	9.4150e-01	1.1642	-8.102216	0.000218	2.181338	0.369529	-0.004362
1885	9.4200e-01	1.1550	-8.131722	0.000295	2.951222	0.499951	-0.005901
1886	9.4250e-01	1.1449	-8.170208	0.000385	3.849420	0.652109	-0.007697
1887	9.4300e-01	1.1378	-8.192873	0.000227	2.266881	0.384020	-0.004533
1888	9.4350e-01	1.1272	-8.227510	0.000346	3.464478	0.586899	-0.006928
1889	9.4400e-01	1.1165	-8.263003	0.000355	3.550021	0.601390	-0.007099
1890	9.4450e-01	1.1048	-8.285240	0.000222	2.224110	0.376774	-0.004447
1891	9.4500e-01	1.0940	-8.317312	0.000321	3.207850	0.543425	-0.006414
1892	9.4550e-01	1.0865	-8.355798	0.000385	3.849420	0.652109	-0.007697
1893	9.4600e-01	1.0732	-8.381455	0.000257	2.566280	0.434740	-0.005132
1894	9.4650e-01	1.0635	-8.429777	0.000483	4.833161	0.818760	-0.009664
1895	9.4700e-01	1.0561	-8.464415	0.000346	3.464478	0.586899	-0.006928
1896	9.4750e-01	1.0483	-8.475105	0.000107	1.069283	0.181142	-0.002138
1897	9.4800e-01	1.0371	-8.505039	0.000299	2.993994	0.507196	-0.005987
1898	9.4850e-01	1.0246	-8.549512	0.000445	4.448219	0.753549	-0.008895
1899	9.4900e-01	1.0130	-8.571321	0.000218	2.181338	0.369529	-0.004362
1900	9.4950e-01	1.0053	-8.613228	0.000419	4.191591	0.710075	-0.008381
1901	9.5000e-01	0.9959	-8.660267	0.000470	4.704847	0.797023	-0.009408
1902	9.5050e-01	0.9863	-8.658984	-0.000013	-0.128314	-0.021737	0.000257
1903	9.5100e-01	0.9760	-8.699609	0.000406	4.063277	0.688338	-0.008125
1904	9.5150e-01	0.9653	-8.741943	0.000423	4.234362	0.717320	-0.008467
1905	9.5200e-01	0.9552	-8.768456	0.000265	2.651823	0.449231	-0.005303
1906	9.5250e-01	0.9437	-8.785561	0.000171	1.710854	0.289826	-0.003421
1907	9.5300e-01	0.9354	-8.834311	0.000488	4.875933	0.826005	-0.009750
1908	9.5350e-01	0.9253	-8.843718	0.000094	0.940969	0.159405	-0.001882
1909	9.5400e-01	0.9176	-8.893750	0.000500	5.004247	0.847742	-0.010006
1910	9.5450e-01	0.9055	-8.911711	0.000180	1.796396	0.304318	-0.003592
1911	9.5500e-01	0.8932	-8.977137	0.000654	6.544015	1.108586	-0.013085
1912	9.5550e-01	0.8858	-8.981414	0.000043	0.427713	0.072457	-0.000855
1913	9.5600e-01	0.8772	-9.042136	0.000607	6.073530	1.028884	-0.012145
1914	9.5650e-01	0.8640	-9.063945	0.000218	2.181338	0.369529	-0.004362
1915	9.5700e-01	0.8575	-9.096445	0.000325	3.250622	0.550670	-0.006500
1916	9.5750e-01	0.8450	-9.123385	0.000269	2.694594	0.456477	-0.005388
1917	9.5800e-01	0.8362	-9.144339	0.000210	2.095796	0.355037	-0.004191
1918	9.5850e-01	0.8252	-9.165293	0.000210	2.095796	0.355037	-0.004191
1919	9.5900e-01	0.8168	-9.208910	0.000436	4.362676	0.739057	-0.008724
1920	9.5950e-01	0.8047	-9.255094	0.000462	4.619305	0.782531	-0.009237
1921	9.6000e-01	0.7951	-9.252100	-0.000030	-0.299399	-0.050720	0.000599
1922	9.6050e-01	0.7864	-9.295291	0.000432	4.319905	0.731812	-0.008638
1923	9.6100e-01	0.7724	-9.322231	0.000269	2.694594	0.456477	-0.005388
1924	9.6150e-01	0.7642	-9.364138	0.000419	4.191591	0.710075	-0.008381
1925	9.6200e-01	0.7555	-9.405190	0.000411	4.106048	0.695583	-0.008210
1926	9.6250e-01	0.7452	-9.418019	0.000128	1.283140	0.217370	-0.002566
1927	9.6300e-01	0.7342	-9.468479	0.000505	5.047018	0.854988	-0.010092
1928	9.6350e-01	0.7230	-9.503116	0.000346	3.464478	0.586899	-0.006928
1929	9.6400e-01	0.7162	-9.528774	0.000257	2.566280	0.434740	-0.005132
1930	9.6450e-01	0.7040	-9.554004	0.000252	2.523509	0.427494	-0.005046
1931	9.6500e-01	0.6927	-9.606174	0.000522	5.218103	0.883971	-0.010434
1932	9.6550e-01	0.6849	-9.632259	0.000261	2.609052	0.441985	-0.005217
1933	9.6600e-01	0.6757	-9.645943	0.000137	1.368683	0.231861	-0.002737
1934	9.6650e-01	0.6654	-9.692554	0.000466	4.662076	0.789777	-0.009322
1935	9.6700e-01	0.6548	-9.725054	0.000325	3.250622	0.550670	-0.006500
1936	9.6750e-01	0.6462	-9.757554	0.000325	3.250622	0.550670	-0.006500
1937	9.6800e-01	0.6335	-9.787487	0.000299	2.993994	0.507196	-0.005987
1938	9.6850e-01	0.6266	-9.808013	0.000205	2.053024	0.347792	-0.004105
1939	9.6900e-01	0.6152	-9.847782	0.000398	3.977734	0.673846	-0.007954
1940	9.6950e-01	0.6041	-9.870874	0.000231	2.309652	0.391266	-0.004618
1941	9.7000e-01	0.5963	-9.900380	0.000295	2.951222	0.499951	-0.005901
1942	9.7050e-01	0.5844	-9.952123	0.000518	5.175332	0.876725	-0.010349
1943	9.7100e-01	0.5753	-9.978636	0.000265	2.651823	0.449231	-0.005303
1944	9.7150e-01	0.5650	-10.014556	0.000359	3.592792	0.608636	-0.007184
1945	9.7200e-01	0.5576	-10.026530	0.000120	1.197597	0.202879	-0.002395
1946	9.7250e-01	0.5415	-10.059885	0.000334	3.336164	0.565162	-0.006671
1947	9.7300e-01	0.5367	-10.107779	0.000479	4.790390	0.811514	-0.009579
1948	9.7350e-01	0.5248	-10.156956	0.000492	4.918704	0.833251	-0.009835
1949	9.7400e-01	0.5138	-10.172778	0.000158	1.582540	0.268089	-0.003164
1950	9.7450e-01	0.5027	-10.192448	0.000197	1.967482	0.333300	-0.003934
1951	9.7500e-01	0.4954	-10.246329	0.000539	5.389189	0.912953	-0.010776
1952	9.7550e-01	0.4827	-10.267283	0.000210	2.095796	0.355037	-0.004191
1953	9.7600e-01	0.4763	-10.299782	0.000325	3.250622	0.550670	-0.006500
1954	9.7650e-01	0.4643	-10.333992	0.000342	3.421707	0.579653	-0.006842
1955	9.7700e-01	0.4560	-10.355801	0.000218	2.181338	0.369529	-0.004362
1956	9.7750e-01	0.4445	-10.394288	0.000385	3.849420	0.652109	-0.007697
1957	9.7800e-01	0.4352	-10.426787	0.000325	3.250622	0.550670	-0.006500
1958	9.7850e-01	0.4241	-10.455010	0.000282	2.822908	0.478214	-0.005645
1959	9.7900e-01	0.4171	-10.497773	0.000428	4.277134	0.724566	-0.008553
1960	9.7950e-01	0.4063	-10.505470	0.000077	0.769884	0.130422	-0.001539
1961	9.8000e-01	0.3951	-10.560206	0.000547	5.474731	0.927445	-0.010947
1962	9.8050e-01	0.3859	-10.597410	0.000372	3.721106	0.630372	-0.007441
1963	9.8100e-01	0.3751	-10.619646	0.000222	2.224110	0.376774	-0.004447
1964	9.8150e-01	0.3645	-10.654711	0.000351	3.507250	0.594144	-0.007013
1965	9.8200e-01	0.3524	-10.688921	0.000342	3.421707	0.579653	-0.006842
1966	9.8250e-01	0.3466	-10.733822	0.000449	4.490990	0.760794	-0.008980
1967	9.8300e-01	0.3349	-10.747506	0.000137	1.368683	0.231861	-0.002737
1968	9.8350e-01	0.3269	-10.782999	0.000355	3.550021	0.601390	-0.007099
1969	9.8400e-01	0.3131	-10.823623	0.000406	4.063277	0.688338	-0.008125
1970	9.8450e-01	0.3027	-10.832603	0.000090	0.898198	0.152159	-0.001796
1971	9.8500e-01	0.2956	-10.877076	0.000445	4.448219	0.753549	-0.008895
1972	9.8550e-01	0.2850	-10.912569	0.000355	3.550021	0.601390	-0.007099
1973	9.8600e-01	0.2763	-10.957042	0.000445	4.448219	0.753549	-0.008895
1974	9.8650e-01	0.2637	-10.978424	0.000214	2.138567	0.362283	-0.004276
1975	9.8700e-01	0.2531	-10.996384	0.000180	1.796396	0.304318	-0.003592
1976	9.8750e-01	0.2457	-11.045133	0.000488	4.875933	0.826005	-0.009750
1977	9.8800e-01	0.2365	-11.098586	0.000535	5.346417	0.905708	-0.010691
1978	9.8850e-01	0.2261	-11.104146	0.000056	0.556027	0.094194	-0.001112
1979	9.8900e-01	0.2148	-11.143487	0.000393	3.934963	0.666601	-0.007868
1980	9.8950e-01	0.2046	-11.181118	0.000376	3.763878	0.637618	-0.007526
1981	9.9000e-01	0.1952	-11.222170	0.000411	4.106048	0.695583	-0.008210
1982	9.9050e-01	0.1862	-11.245262	0.000231	2.309652	0.391266	-0.004618
1983	9.9100e-01	0.1738	-11.277334	0.000321	3.207850	0.543425	-0.006414
1984	9.9150e-01	0.1660	-11.302136	0.000248	2.480738	0.420248	-0.004960
1985	9.9200e-01	0.1556	-11.340622	0.000385	3.849420	0.652109	-0.007697
1986	9.9250e-01	0.1437	-11.362431	0.000218	2.181338	0.369529	-0.004362
1987	9.9300e-01	0.1342	-11.404766	0.000423	4.234362	0.717320	-0.008467
1988	9.9350e-01	0.1238	-11.421443	0.000167	1.668082	0.282581	-0.003335
1989	9.9400e-01	0.1142	-11.475324	0.000539	5.389189	0.912953	-0.010776
1990	9.9450e-01	0.1052	-11.497988	0.000227	2.266881	0.384020	-0.004533
1991	9.9500e-01	0.0950	-11.527922	0.000299	2.993994	0.507196	-0.005987
1992	9.9550e-01	0.0850	-11.580520	0.000526	5.260875	0.891216	-0.010520
1993	9.9600e-01	0.0774	-11.611309	0.000308	3.079536	0.521688	-0.006158
1994	9.9650e-01	0.0649	-11.637394	0.000261	2.609052	0.441985	-0.005217
1995	9.9700e-01	0.0543	-11.666473	0.000291	2.908451	0.492705	-0.005816
1996	9.9750e-01	0.0476	-11.713512	0.000470	4.704847	0.797023	-0.009408
1997	9.9800e-01	0.0363	-11.707952	-0.000056	-0.556027	-0.094194	0.001112
1998	9.9850e-01	0.0211	-11.751998	0.000441	4.405448	0.746303	-0.008809
1999	9.9900e-01	0.0160	-11.816142	0.000642	6.415701	1.086849	-0.012829
2000	9.9950e-01	0.0039	-11.834957	0.000188	1.881939	0.318809	-0.003763
2001	1.0000e+00	-0.0010	-11.863180	0.000188	1.881939	0.318809	-0.005645

PMax (uC/cm2):	2.72e+01
Pr (uC/cm2):	1.75e+00
-Pr (uC/cm2):	0.00e+00
PLoss (uC/cm2):	0.00e+00
C (Max-Eff) (nF):	2.72e-01
K (Eff):	4.62e+02
Vert. (+/-Pr) Shift (uC/cm2):	8.76e-01
Offset (uC/cm2):	1.36e+01

A (Loop Area - uC/cm2·Volts):	-1.51e-02



Hysteresis Version: 5.48.1 - Radiant Technologies, Inc., 1999 - 9/12/24

