»»»»»»»»»»»»»»»»»»»»»»»»»»»»»»»»»»»» Hysteresis ««««««««««««««««««««««««««««««««««««
»»»  Executed Version:	5.48.1
»»»  Vision Version:	5.48.4 (R)
»»»  Vision Compiled:	9/18/24
»»»  Driver Version:	5.47.0
»»»  Windows Version:	Windows 8 or 8.1
»»»  Processor Information:	x86 (AMD or Intel) - 32 Processors
»»»  Tester Name:	PMF21124-494 (100V)
»»»  Tester S/N:	PMF21124-494
»»»  Internal Amp Type:	100V RevK 270k
»»»  Internal Amp S/N:	iAB2-596/K     
»»»  Execution Count:	1
»»»»»»»»»»»»»»»»»»»»»»»»»»»»»»»»»»»»»»»»»»««««««««««««««««««««««««««««««««««««««««««

Stored:	7/1/2025 - 14:6:49
Configured:	07/01/25 10:49:51 AM
Executed:	07/01/25 02:06:16 PM

»»»»»»»»»»»»»»»»»»»»»»»»»»»»»»»»»»» Sample Info ««««««««««««««««««««««««««««««««««««
Sample Name:	
Lot Name:	
Wafer Name:	
Die Row/Column:	0/0
Capacitor Number:	0
Sample Area (cm2):	1.00e-04
Sample Thickness (microns):	1.50e-01

Amplifier:	Internal

»»»»»»»»»»»»»»»»»»»»»»»»»»»»»»»»»»» Tester Info «««««««««««««««««««««««««««««««««««
Tester Name:	PMF21124-494 (100V)
Tester Serial Number:	PMF21124-494
Return Signal Amp. Level:	0.19 [Index: 3]

»»»»»»»»»»»»»»»»»»»»»»»»»»»»»»»» Hysteresis Info ««««««««««««««««««««««««««««««««««
Task Name:	Hyst-22
Volts:	10.00
Field:	666.67 (kV/cm)
DCBias:	0.00
DCField:	0.00 (kV/cm)
Hysteresis Period (ms):	2.00e+02
Preset:	Enabled
Preset Delay (ms):	1.00e+03
Profile:	Standard Bipolar

»»»»»»»»»»»»»»»»»»»»»»»»»»»»»»»»»»»»»» Data «««««««««««««««««««««««««««««««««««««««
Points:	2009

Valid Data

Point	Time (ms)	Drive Voltage	Measured Polarization (uC/cm2)	Capacitance (uF)	Normalized Capacitance (uF/cm2)	Dielectric Constant	Instantaneous Current (mA)
   1	0.0000e+00	0.0000	29.081507	0.000750	7.499706	1.270485	0.000150
   2	9.9500e-02	0.0201	29.230881	0.000750	7.499706	1.270485	0.000150
   3	1.9900e-01	0.0380	29.448887	0.001095	10.945517	1.854221	0.000219
   4	2.9850e-01	0.0585	29.650743	0.001013	10.134738	1.716871	0.000203
   5	3.9800e-01	0.0793	29.767820	0.000588	5.878148	0.995785	0.000118
   6	4.9750e-01	0.0986	29.957566	0.000953	9.526654	1.613859	0.000191
   7	5.9700e-01	0.1183	30.183645	0.001135	11.350906	1.922896	0.000227
   8	6.9650e-01	0.1385	30.373391	0.000953	9.526654	1.613859	0.000191
   9	7.9600e-01	0.1593	30.526802	0.000770	7.702401	1.304822	0.000154
  10	8.9550e-01	0.1778	30.728659	0.001013	10.134738	1.716871	0.000203
  11	9.9500e-01	0.1989	30.902256	0.000872	8.715875	1.476509	0.000174
  12	1.0945e+00	0.2188	31.079889	0.000892	8.918569	1.510847	0.000179
  13	1.1940e+00	0.2380	31.305969	0.001135	11.350906	1.922896	0.000227
  14	1.2935e+00	0.2581	31.463417	0.000791	7.905095	1.339159	0.000158
  15	1.3930e+00	0.2787	31.645088	0.000912	9.121264	1.545184	0.000183
  16	1.4925e+00	0.2974	31.871168	0.001135	11.350906	1.922896	0.000227
  17	1.5920e+00	0.3194	32.024579	0.000770	7.702401	1.304822	0.000154
  18	1.6915e+00	0.3381	32.246622	0.001115	11.148212	1.888558	0.000223
  19	1.7910e+00	0.3573	32.412144	0.000831	8.310485	1.407834	0.000166
  20	1.8905e+00	0.3773	32.605927	0.000973	9.729348	1.648196	0.000195
  21	1.9900e+00	0.3974	32.819895	0.001074	10.742822	1.819883	0.000215
  22	2.0895e+00	0.4174	33.013677	0.000973	9.729348	1.648196	0.000195
  23	2.1890e+00	0.4377	33.223609	0.001054	10.540127	1.785546	0.000211
  24	2.2885e+00	0.4568	33.372983	0.000750	7.499706	1.270485	0.000150
  25	2.3880e+00	0.4778	33.595025	0.001115	11.148212	1.888558	0.000223
  26	2.4875e+00	0.4974	33.760548	0.000831	8.310485	1.407834	0.000166
  27	2.5870e+00	0.5166	33.962404	0.001013	10.134738	1.716871	0.000203
  28	2.6865e+00	0.5371	34.188484	0.001135	11.350906	1.922896	0.000227
  29	2.7860e+00	0.5569	34.378229	0.000953	9.526654	1.613859	0.000191
  30	2.8855e+00	0.5766	34.555863	0.000892	8.918569	1.510847	0.000179
  31	2.9850e+00	0.5970	34.753683	0.000993	9.932043	1.682534	0.000199
  32	3.0845e+00	0.6160	34.951503	0.000993	9.932043	1.682534	0.000199
  33	3.1840e+00	0.6374	35.157397	0.001034	10.337433	1.751208	0.000207
  34	3.2835e+00	0.6567	35.330993	0.000872	8.715875	1.476509	0.000174
  35	3.3830e+00	0.6774	35.532850	0.001013	10.134738	1.716871	0.000203
  36	3.4825e+00	0.6967	35.714521	0.000912	9.121264	1.545184	0.000183
  37	3.5820e+00	0.7162	35.932527	0.001095	10.945517	1.854221	0.000219
  38	3.6815e+00	0.7362	36.154569	0.001115	11.148212	1.888558	0.000223
  39	3.7810e+00	0.7554	36.348352	0.000973	9.729348	1.648196	0.000195
  40	3.8805e+00	0.7759	36.546171	0.000993	9.932043	1.682534	0.000199
  41	3.9800e+00	0.7962	36.756102	0.001054	10.540127	1.785546	0.000211
  42	4.0795e+00	0.8158	36.966033	0.001054	10.540127	1.785546	0.000211
  43	4.1790e+00	0.8360	37.184039	0.001095	10.945517	1.854221	0.000219
  44	4.2785e+00	0.8559	37.381858	0.000993	9.932043	1.682534	0.000199
  45	4.3780e+00	0.8749	37.551418	0.000851	8.513180	1.442172	0.000170
  46	4.4775e+00	0.8952	37.745201	0.000973	9.729348	1.648196	0.000195
  47	4.5770e+00	0.9155	37.959169	0.001074	10.742822	1.819883	0.000215
  48	4.6765e+00	0.9354	38.193323	0.001176	11.756296	1.991570	0.000235
  49	4.7760e+00	0.9550	38.391142	0.000993	9.932043	1.682534	0.000199
  50	4.8755e+00	0.9762	38.560702	0.000851	8.513180	1.442172	0.000170
  51	4.9750e+00	0.9953	38.778707	0.001095	10.945517	1.854221	0.000219
  52	5.0745e+00	1.0152	39.020935	0.001216	12.161685	2.060245	0.000243
  53	5.1740e+00	1.0364	39.178384	0.000791	7.905095	1.339159	0.000158
  54	5.2735e+00	1.0552	39.384278	0.001034	10.337433	1.751208	0.000207
  55	5.3730e+00	1.0751	39.626506	0.001216	12.161685	2.060245	0.000243
  56	5.4725e+00	1.0944	39.824325	0.000993	9.932043	1.682534	0.000199
  57	5.5720e+00	1.1156	40.034257	0.001054	10.540127	1.785546	0.000211
  58	5.6715e+00	1.1350	40.260336	0.001135	11.350906	1.922896	0.000227
  59	5.7710e+00	1.1549	40.462193	0.001013	10.134738	1.716871	0.000203
  60	5.8705e+00	1.1745	40.672124	0.001054	10.540127	1.785546	0.000211
  61	5.9700e+00	1.1950	40.886092	0.001074	10.742822	1.819883	0.000215
  62	6.0695e+00	1.2148	41.091986	0.001034	10.337433	1.751208	0.000207
  63	6.1690e+00	1.2349	41.334214	0.001216	12.161685	2.060245	0.000243
  64	6.2685e+00	1.2538	41.527997	0.000973	9.729348	1.648196	0.000195
  65	6.3680e+00	1.2746	41.737928	0.001054	10.540127	1.785546	0.000211
  66	6.4675e+00	1.2940	41.943822	0.001034	10.337433	1.751208	0.000207
  67	6.5670e+00	1.3143	42.173938	0.001155	11.553601	1.957233	0.000231
  68	6.6665e+00	1.3332	42.400018	0.001135	11.350906	1.922896	0.000227
  69	6.7660e+00	1.3535	42.618023	0.001095	10.945517	1.854221	0.000219
  70	6.8655e+00	1.3734	42.823917	0.001034	10.337433	1.751208	0.000207
  71	6.9650e+00	1.3932	43.029811	0.001034	10.337433	1.751208	0.000207
  72	7.0645e+00	1.4130	43.247817	0.001095	10.945517	1.854221	0.000219
  73	7.1640e+00	1.4342	43.453711	0.001034	10.337433	1.751208	0.000207
  74	7.2635e+00	1.4535	43.647493	0.000973	9.729348	1.648196	0.000195
  75	7.3630e+00	1.4733	43.881647	0.001176	11.756296	1.991570	0.000235
  76	7.4625e+00	1.4928	44.095615	0.001074	10.742822	1.819883	0.000215
  77	7.5620e+00	1.5131	44.285360	0.000953	9.526654	1.613859	0.000191
  78	7.6615e+00	1.5325	44.491254	0.001034	10.337433	1.751208	0.000207
  79	7.7610e+00	1.5532	44.721371	0.001155	11.553601	1.957233	0.000231
  80	7.8605e+00	1.5732	44.959562	0.001196	11.958991	2.025908	0.000239
  81	7.9600e+00	1.5932	45.181605	0.001115	11.148212	1.888558	0.000223
  82	8.0595e+00	1.6122	45.383461	0.001013	10.134738	1.716871	0.000203
  83	8.1590e+00	1.6322	45.589355	0.001034	10.337433	1.751208	0.000207
  84	8.2585e+00	1.6533	45.783138	0.000973	9.729348	1.648196	0.000195
  85	8.3580e+00	1.6720	46.005180	0.001115	11.148212	1.888558	0.000223
  86	8.4575e+00	1.6930	46.223186	0.001095	10.945517	1.854221	0.000219
  87	8.5570e+00	1.7129	46.461377	0.001196	11.958991	2.025908	0.000239
  88	8.6565e+00	1.7323	46.675345	0.001074	10.742822	1.819883	0.000215
  89	8.7560e+00	1.7526	46.893350	0.001095	10.945517	1.854221	0.000219
  90	8.8555e+00	1.7718	47.075021	0.000912	9.121264	1.545184	0.000183
  91	8.9550e+00	1.7914	47.345509	0.001358	13.580549	2.300607	0.000272
  92	9.0545e+00	1.8127	47.531218	0.000932	9.323959	1.579521	0.000187
  93	9.1540e+00	1.8313	47.757297	0.001135	11.350906	1.922896	0.000227
  94	9.2535e+00	1.8517	47.918783	0.000811	8.107790	1.373497	0.000162
  95	9.3530e+00	1.8710	48.177159	0.001297	12.972464	2.197595	0.000260
  96	9.4525e+00	1.8904	48.399202	0.001115	11.148212	1.888558	0.000223
  97	9.5520e+00	1.9114	48.637393	0.001196	11.958991	2.025908	0.000239
  98	9.6515e+00	1.9308	48.847324	0.001054	10.540127	1.785546	0.000211
  99	9.7510e+00	1.9512	49.089552	0.001216	12.161685	2.060245	0.000243
 100	9.8505e+00	1.9714	49.283335	0.000973	9.729348	1.648196	0.000195
 101	9.9500e+00	1.9921	49.501340	0.001095	10.945517	1.854221	0.000219
 102	1.0050e+01	2.0103	49.703197	0.001013	10.134738	1.716871	0.000203
 103	1.0149e+01	2.0309	49.969648	0.001338	13.377854	2.266270	0.000268
 104	1.0248e+01	2.0510	50.155356	0.000932	9.323959	1.579521	0.000187
 105	1.0348e+01	2.0718	50.377398	0.001115	11.148212	1.888558	0.000223
 106	1.0447e+01	2.0906	50.579255	0.001013	10.134738	1.716871	0.000203
 107	1.0547e+01	2.1112	50.857817	0.001399	13.985938	2.369282	0.000280
 108	1.0646e+01	2.1306	51.023340	0.000831	8.310485	1.407834	0.000166
 109	1.0746e+01	2.1514	51.301902	0.001399	13.985938	2.369282	0.000280
 110	1.0845e+01	2.1706	51.463388	0.000811	8.107790	1.373497	0.000162
 111	1.0945e+01	2.1907	51.685430	0.001115	11.148212	1.888558	0.000223
 112	1.1044e+01	2.2101	51.899398	0.001074	10.742822	1.819883	0.000215
 113	1.1144e+01	2.2311	52.133552	0.001176	11.756296	1.991570	0.000235
 114	1.1243e+01	2.2502	52.327335	0.000973	9.729348	1.648196	0.000195
 115	1.1343e+01	2.2698	52.581674	0.001277	12.769770	2.163258	0.000256
 116	1.1443e+01	2.2902	52.831977	0.001257	12.567075	2.128920	0.000252
 117	1.1542e+01	2.3104	52.997499	0.000831	8.310485	1.407834	0.000166
 118	1.1642e+01	2.3300	53.243765	0.001236	12.364380	2.094583	0.000248
 119	1.1741e+01	2.3502	53.433510	0.000953	9.526654	1.613859	0.000191
 120	1.1841e+01	2.3711	53.659590	0.001135	11.350906	1.922896	0.000227
 121	1.1940e+01	2.3898	53.893744	0.001176	11.756296	1.991570	0.000235
 122	1.2040e+01	2.4100	54.071378	0.000892	8.918569	1.510847	0.000179
 123	1.2139e+01	2.4305	54.321680	0.001257	12.567075	2.128920	0.000252
 124	1.2239e+01	2.4496	54.555834	0.001176	11.756296	1.991570	0.000235
 125	1.2338e+01	2.4700	54.765765	0.001054	10.540127	1.785546	0.000211
 126	1.2438e+01	2.4895	54.999919	0.001176	11.756296	1.991570	0.000235
 127	1.2537e+01	2.5099	55.173516	0.000872	8.715875	1.476509	0.000174
 128	1.2636e+01	2.5290	55.427855	0.001277	12.769770	2.163258	0.000256
 129	1.2736e+01	2.5499	55.625675	0.000993	9.932043	1.682534	0.000199
 130	1.2835e+01	2.5694	55.831569	0.001034	10.337433	1.751208	0.000207
 131	1.2935e+01	2.5890	56.065723	0.001176	11.756296	1.991570	0.000235
 132	1.3034e+01	2.6083	56.311988	0.001236	12.364380	2.094583	0.000248
 133	1.3134e+01	2.6291	56.485585	0.000872	8.715875	1.476509	0.000174
 134	1.3233e+01	2.6486	56.723776	0.001196	11.958991	2.025908	0.000239
 135	1.3333e+01	2.6670	56.937744	0.001074	10.742822	1.819883	0.000215
 136	1.3432e+01	2.6880	57.147675	0.001054	10.540127	1.785546	0.000211
 137	1.3532e+01	2.7084	57.389903	0.001216	12.161685	2.060245	0.000243
 138	1.3632e+01	2.7288	57.595797	0.001034	10.337433	1.751208	0.000207
 139	1.3731e+01	2.7476	57.829951	0.001176	11.756296	1.991570	0.000235
 140	1.3831e+01	2.7682	58.023733	0.000973	9.729348	1.648196	0.000195
 141	1.3930e+01	2.7881	58.261924	0.001196	11.958991	2.025908	0.000239
 142	1.4030e+01	2.8079	58.475893	0.001074	10.742822	1.819883	0.000215
 143	1.4129e+01	2.8284	58.677749	0.001013	10.134738	1.716871	0.000203
 144	1.4229e+01	2.8478	58.932089	0.001277	12.769770	2.163258	0.000256
 145	1.4328e+01	2.8677	59.113760	0.000912	9.121264	1.545184	0.000183
 146	1.4428e+01	2.8875	59.303505	0.000953	9.526654	1.613859	0.000191
 147	1.4527e+01	2.9078	59.549771	0.001236	12.364380	2.094583	0.000248
 148	1.4627e+01	2.9276	59.723368	0.000872	8.715875	1.476509	0.000174
 149	1.4726e+01	2.9477	59.965596	0.001216	12.161685	2.060245	0.000243
 150	1.4825e+01	2.9674	60.179564	0.001074	10.742822	1.819883	0.000215
 151	1.4925e+01	2.9869	60.385458	0.001034	10.337433	1.751208	0.000207
 152	1.5024e+01	3.0077	60.607500	0.001115	11.148212	1.888558	0.000223
 153	1.5124e+01	3.0276	60.817431	0.001054	10.540127	1.785546	0.000211
 154	1.5223e+01	3.0470	61.051585	0.001176	11.756296	1.991570	0.000235
 155	1.5323e+01	3.0682	61.265553	0.001074	10.742822	1.819883	0.000215
 156	1.5422e+01	3.0873	61.499707	0.001176	11.756296	1.991570	0.000235
 157	1.5522e+01	3.1066	61.729824	0.001155	11.553601	1.957233	0.000231
 158	1.5621e+01	3.1268	61.871124	0.000709	7.094316	1.201810	0.000142
 159	1.5721e+01	3.1472	62.117389	0.001236	12.364380	2.094583	0.000248
 160	1.5820e+01	3.1669	62.383840	0.001338	13.377854	2.266270	0.000268
 161	1.5920e+01	3.1865	62.561474	0.000892	8.918569	1.510847	0.000179
 162	1.6020e+01	3.2059	62.795628	0.001176	11.756296	1.991570	0.000235
 163	1.6119e+01	3.2265	62.965188	0.000851	8.513180	1.442172	0.000170
 164	1.6218e+01	3.2464	63.211453	0.001236	12.364380	2.094583	0.000248
 165	1.6318e+01	3.2658	63.397161	0.000932	9.323959	1.579521	0.000187
 166	1.6418e+01	3.2859	63.615166	0.001095	10.945517	1.854221	0.000219
 167	1.6517e+01	3.3053	63.877580	0.001318	13.175159	2.231932	0.000264
 168	1.6616e+01	3.3257	64.071363	0.000973	9.729348	1.648196	0.000195
 169	1.6716e+01	3.3459	64.261108	0.000953	9.526654	1.613859	0.000191
 170	1.6816e+01	3.3664	64.511411	0.001257	12.567075	2.128920	0.000252
 171	1.6915e+01	3.3863	64.725379	0.001074	10.742822	1.819883	0.000215
 172	1.7015e+01	3.4060	64.931273	0.001034	10.337433	1.751208	0.000207
 173	1.7114e+01	3.4264	65.161389	0.001155	11.553601	1.957233	0.000231
 174	1.7213e+01	3.4461	65.339023	0.000892	8.918569	1.510847	0.000179
 175	1.7313e+01	3.4662	65.589326	0.001257	12.567075	2.128920	0.000252
 176	1.7413e+01	3.4846	65.775034	0.000932	9.323959	1.579521	0.000187
 177	1.7512e+01	3.5056	65.989002	0.001074	10.742822	1.819883	0.000215
 178	1.7611e+01	3.5267	66.239305	0.001257	12.567075	2.128920	0.000252
 179	1.7711e+01	3.5456	66.420976	0.000912	9.121264	1.545184	0.000183
 180	1.7811e+01	3.5653	66.606684	0.000932	9.323959	1.579521	0.000187
 181	1.7910e+01	3.5851	66.881209	0.001378	13.783243	2.334945	0.000276
 182	1.8009e+01	3.6056	67.058843	0.000892	8.918569	1.510847	0.000179
 183	1.8109e+01	3.6251	67.220329	0.000811	8.107790	1.373497	0.000162
 184	1.8209e+01	3.6455	67.490817	0.001358	13.580549	2.300607	0.000272
 185	1.8308e+01	3.6655	67.716896	0.001135	11.350906	1.922896	0.000227
 186	1.8407e+01	3.6853	67.910679	0.000973	9.729348	1.648196	0.000195
 187	1.8507e+01	3.7041	68.116573	0.001034	10.337433	1.751208	0.000207
 188	1.8607e+01	3.7247	68.334578	0.001095	10.945517	1.854221	0.000219
 189	1.8706e+01	3.7450	68.528361	0.000973	9.729348	1.648196	0.000195
 190	1.8805e+01	3.7643	68.718106	0.000953	9.526654	1.613859	0.000191
 191	1.8905e+01	3.7841	68.932074	0.001074	10.742822	1.819883	0.000215
 192	1.9005e+01	3.8036	69.166228	0.001176	11.756296	1.991570	0.000235
 193	1.9104e+01	3.8241	69.343862	0.000892	8.918569	1.510847	0.000179
 194	1.9203e+01	3.8442	69.578016	0.001176	11.756296	1.991570	0.000235
 195	1.9303e+01	3.8635	69.783910	0.001034	10.337433	1.751208	0.000207
 196	1.9402e+01	3.8830	69.985767	0.001013	10.134738	1.716871	0.000203
 197	1.9502e+01	3.9037	70.207809	0.001115	11.148212	1.888558	0.000223
 198	1.9602e+01	3.9237	70.409666	0.001013	10.134738	1.716871	0.000203
 199	1.9701e+01	3.9432	70.611523	0.001013	10.134738	1.716871	0.000203
 200	1.9800e+01	3.9640	70.793194	0.000912	9.121264	1.545184	0.000183
 201	1.9900e+01	3.9836	71.003125	0.001054	10.540127	1.785546	0.000211
 202	2.0000e+01	4.0029	71.245353	0.001216	12.161685	2.060245	0.000243
 203	2.0099e+01	4.0237	71.418950	0.000872	8.715875	1.476509	0.000174
 204	2.0198e+01	4.0435	71.661178	0.001216	12.161685	2.060245	0.000243
 205	2.0298e+01	4.0634	71.850923	0.000953	9.526654	1.613859	0.000191
 206	2.0398e+01	4.0829	72.068929	0.001095	10.945517	1.854221	0.000219
 207	2.0497e+01	4.1024	72.258674	0.000953	9.526654	1.613859	0.000191
 208	2.0596e+01	4.1221	72.472642	0.001074	10.742822	1.819883	0.000215
 209	2.0696e+01	4.1428	72.670462	0.000993	9.932043	1.682534	0.000199
 210	2.0796e+01	4.1625	72.868282	0.000993	9.932043	1.682534	0.000199
 211	2.0895e+01	4.1815	73.058027	0.000953	9.526654	1.613859	0.000191
 212	2.0994e+01	4.2026	73.284106	0.001135	11.350906	1.922896	0.000227
 213	2.1094e+01	4.2218	73.473852	0.000953	9.526654	1.613859	0.000191
 214	2.1194e+01	4.2429	73.671672	0.000993	9.932043	1.682534	0.000199
 215	2.1293e+01	4.2620	73.877565	0.001034	10.337433	1.751208	0.000207
 216	2.1392e+01	4.2826	74.115756	0.001196	11.958991	2.025908	0.000239
 217	2.1492e+01	4.3018	74.313576	0.000993	9.932043	1.682534	0.000199
 218	2.1591e+01	4.3216	74.495247	0.000912	9.121264	1.545184	0.000183
 219	2.1691e+01	4.3417	74.717290	0.001115	11.148212	1.888558	0.000223
 220	2.1791e+01	4.3614	74.882812	0.000831	8.310485	1.407834	0.000166
 221	2.1890e+01	4.3810	75.088706	0.001034	10.337433	1.751208	0.000207
 222	2.1989e+01	4.4022	75.318823	0.001155	11.553601	1.957233	0.000231
 223	2.2089e+01	4.4209	75.516643	0.000993	9.932043	1.682534	0.000199
 224	2.2189e+01	4.4415	75.730611	0.001074	10.742822	1.819883	0.000215
 225	2.2288e+01	4.4609	75.896133	0.000831	8.310485	1.407834	0.000166
 226	2.2387e+01	4.4805	76.154510	0.001297	12.972464	2.197595	0.000260
 227	2.2487e+01	4.5017	76.328107	0.000872	8.715875	1.476509	0.000174
 228	2.2587e+01	4.5214	76.501704	0.000872	8.715875	1.476509	0.000174
 229	2.2686e+01	4.5411	76.739895	0.001196	11.958991	2.025908	0.000239
 230	2.2785e+01	4.5606	76.909454	0.000851	8.513180	1.442172	0.000170
 231	2.2885e+01	4.5806	77.135534	0.001135	11.350906	1.922896	0.000227
 232	2.2985e+01	4.6008	77.325279	0.000953	9.526654	1.613859	0.000191
 233	2.3084e+01	4.6212	77.523099	0.000993	9.932043	1.682534	0.000199
 234	2.3183e+01	4.6409	77.720919	0.000993	9.932043	1.682534	0.000199
 235	2.3283e+01	4.6609	77.934887	0.001074	10.742822	1.819883	0.000215
 236	2.3383e+01	4.6806	78.128669	0.000973	9.729348	1.648196	0.000195
 237	2.3482e+01	4.7002	78.302266	0.000872	8.715875	1.476509	0.000174
 238	2.3581e+01	4.7217	78.504123	0.001013	10.134738	1.716871	0.000203
 239	2.3681e+01	4.7402	78.697906	0.000973	9.729348	1.648196	0.000195
 240	2.3780e+01	4.7605	78.891688	0.000973	9.729348	1.648196	0.000195
 241	2.3880e+01	4.7796	79.125842	0.001176	11.756296	1.991570	0.000235
 242	2.3980e+01	4.8005	79.295402	0.000851	8.513180	1.442172	0.000170
 243	2.4079e+01	4.8209	79.477073	0.000912	9.121264	1.545184	0.000183
 244	2.4178e+01	4.8404	79.691041	0.001074	10.742822	1.819883	0.000215
 245	2.4278e+01	4.8605	79.880786	0.000953	9.526654	1.613859	0.000191
 246	2.4378e+01	4.8806	80.054383	0.000872	8.715875	1.476509	0.000174
 247	2.4477e+01	4.9004	80.284500	0.001155	11.553601	1.957233	0.000231
 248	2.4576e+01	4.9203	80.462134	0.000892	8.918569	1.510847	0.000179
 249	2.4676e+01	4.9401	80.615545	0.000770	7.702401	1.304822	0.000154
 250	2.4776e+01	4.9606	80.821439	0.001034	10.337433	1.751208	0.000207
 251	2.4875e+01	4.9799	81.031370	0.001054	10.540127	1.785546	0.000211
 252	2.4974e+01	4.9992	81.225152	0.000973	9.729348	1.648196	0.000195
 253	2.5074e+01	5.0211	81.418935	0.000973	9.729348	1.648196	0.000195
 254	2.5174e+01	5.0389	81.580420	0.000811	8.107790	1.373497	0.000162
 255	2.5273e+01	5.0581	81.798426	0.001095	10.945517	1.854221	0.000219
 256	2.5372e+01	5.0785	81.959911	0.000811	8.107790	1.373497	0.000162
 257	2.5472e+01	5.0993	82.137545	0.000892	8.918569	1.510847	0.000179
 258	2.5572e+01	5.1186	82.327291	0.000953	9.526654	1.613859	0.000191
 259	2.5671e+01	5.1389	82.525110	0.000993	9.932043	1.682534	0.000199
 260	2.5770e+01	5.1575	82.767338	0.001216	12.161685	2.060245	0.000243
 261	2.5870e+01	5.1781	82.916712	0.000750	7.499706	1.270485	0.000150
 262	2.5970e+01	5.1987	83.106458	0.000953	9.526654	1.613859	0.000191
 263	2.6069e+01	5.2175	83.292166	0.000932	9.323959	1.579521	0.000187
 264	2.6169e+01	5.2393	83.502097	0.001054	10.540127	1.785546	0.000211
 265	2.6268e+01	5.2584	83.675694	0.000872	8.715875	1.476509	0.000174
 266	2.6367e+01	5.2780	83.889662	0.001074	10.742822	1.819883	0.000215
 267	2.6467e+01	5.2981	84.063259	0.000872	8.715875	1.476509	0.000174
 268	2.6567e+01	5.3185	84.224744	0.000811	8.107790	1.373497	0.000162
 269	2.6666e+01	5.3379	84.418527	0.000973	9.729348	1.648196	0.000195
 270	2.6765e+01	5.3579	84.608272	0.000953	9.526654	1.613859	0.000191
 271	2.6865e+01	5.3776	84.818203	0.001054	10.540127	1.785546	0.000211
 272	2.6965e+01	5.3982	85.032171	0.001074	10.742822	1.819883	0.000215
 273	2.7064e+01	5.4180	85.177508	0.000730	7.297011	1.236147	0.000146
 274	2.7163e+01	5.4375	85.395514	0.001095	10.945517	1.854221	0.000219
 275	2.7263e+01	5.4578	85.552962	0.000791	7.905095	1.339159	0.000158
 276	2.7363e+01	5.4773	85.746745	0.000973	9.729348	1.648196	0.000195
 277	2.7462e+01	5.4984	85.924378	0.000892	8.918569	1.510847	0.000179
 278	2.7561e+01	5.5177	86.118161	0.000973	9.729348	1.648196	0.000195
 279	2.7661e+01	5.5376	86.320018	0.001013	10.134738	1.716871	0.000203
 280	2.7761e+01	5.5573	86.525912	0.001034	10.337433	1.751208	0.000207
 281	2.7860e+01	5.5769	86.687397	0.000811	8.107790	1.373497	0.000162
 282	2.7959e+01	5.5961	86.877143	0.000953	9.526654	1.613859	0.000191
 283	2.8059e+01	5.6176	87.062851	0.000932	9.323959	1.579521	0.000187
 284	2.8159e+01	5.6362	87.236448	0.000872	8.715875	1.476509	0.000174
 285	2.8258e+01	5.6568	87.414082	0.000892	8.918569	1.510847	0.000179
 286	2.8358e+01	5.6771	87.624013	0.001054	10.540127	1.785546	0.000211
 287	2.8457e+01	5.6966	87.817795	0.000973	9.729348	1.648196	0.000195
 288	2.8556e+01	5.7172	87.999466	0.000912	9.121264	1.545184	0.000183
 289	2.8656e+01	5.7371	88.156915	0.000791	7.905095	1.339159	0.000158
 290	2.8756e+01	5.7561	88.346660	0.000953	9.526654	1.613859	0.000191
 291	2.8855e+01	5.7771	88.512182	0.000831	8.310485	1.407834	0.000166
 292	2.8954e+01	5.7960	88.718076	0.001034	10.337433	1.751208	0.000207
 293	2.9054e+01	5.8166	88.899748	0.000912	9.121264	1.545184	0.000183
 294	2.9154e+01	5.8360	89.117753	0.001095	10.945517	1.854221	0.000219
 295	2.9253e+01	5.8561	89.263090	0.000730	7.297011	1.236147	0.000146
 296	2.9352e+01	5.8758	89.460909	0.000993	9.932043	1.682534	0.000199
 297	2.9452e+01	5.8954	89.606246	0.000730	7.297011	1.236147	0.000146
 298	2.9552e+01	5.9158	89.804066	0.000993	9.932043	1.682534	0.000199
 299	2.9651e+01	5.9356	89.993811	0.000953	9.526654	1.613859	0.000191
 300	2.9750e+01	5.9554	90.159334	0.000831	8.310485	1.407834	0.000166
 301	2.9850e+01	5.9756	90.357154	0.000993	9.932043	1.682534	0.000199
 302	2.9950e+01	5.9956	90.510565	0.000770	7.702401	1.304822	0.000154
 303	3.0049e+01	6.0162	90.696273	0.000932	9.323959	1.579521	0.000187
 304	3.0148e+01	6.0351	90.902167	0.001034	10.337433	1.751208	0.000207
 305	3.0248e+01	6.0552	91.051541	0.000750	7.499706	1.270485	0.000150
 306	3.0348e+01	6.0757	91.265509	0.001074	10.742822	1.819883	0.000215
 307	3.0447e+01	6.0957	91.414883	0.000750	7.499706	1.270485	0.000150
 308	3.0547e+01	6.1147	91.608666	0.000973	9.729348	1.648196	0.000195
 309	3.0646e+01	6.1349	91.810522	0.001013	10.134738	1.716871	0.000203
 310	3.0745e+01	6.1550	91.996231	0.000932	9.323959	1.579521	0.000187
 311	3.0845e+01	6.1745	92.105233	0.000547	5.472758	0.927110	0.000110
 312	3.0945e+01	6.1941	92.311127	0.001034	10.337433	1.751208	0.000207
 313	3.1044e+01	6.2150	92.512984	0.001013	10.134738	1.716871	0.000203
 314	3.1143e+01	6.2354	92.686581	0.000872	8.715875	1.476509	0.000174
 315	3.1243e+01	6.2550	92.880363	0.000973	9.729348	1.648196	0.000195
 316	3.1343e+01	6.2745	93.025700	0.000730	7.297011	1.236147	0.000146
 317	3.1442e+01	6.2948	93.219483	0.000973	9.729348	1.648196	0.000195
 318	3.1541e+01	6.3143	93.413265	0.000973	9.729348	1.648196	0.000195
 319	3.1641e+01	6.3338	93.570714	0.000791	7.905095	1.339159	0.000158
 320	3.1741e+01	6.3534	93.764496	0.000973	9.729348	1.648196	0.000195
 321	3.1840e+01	6.3732	93.925982	0.000811	8.107790	1.373497	0.000162
 322	3.1939e+01	6.3940	94.091504	0.000831	8.310485	1.407834	0.000166
 323	3.2039e+01	6.4135	94.261064	0.000851	8.513180	1.442172	0.000170
 324	3.2139e+01	6.4338	94.450809	0.000953	9.526654	1.613859	0.000191
 325	3.2238e+01	6.4539	94.616332	0.000831	8.310485	1.407834	0.000166
 326	3.2337e+01	6.4729	94.798003	0.000912	9.121264	1.545184	0.000183
 327	3.2437e+01	6.4927	95.003897	0.001034	10.337433	1.751208	0.000207
 328	3.2536e+01	6.5130	95.169419	0.000831	8.310485	1.407834	0.000166
 329	3.2636e+01	6.5333	95.330905	0.000811	8.107790	1.373497	0.000162
 330	3.2736e+01	6.5530	95.548910	0.001095	10.945517	1.854221	0.000219
 331	3.2835e+01	6.5730	95.670024	0.000608	6.080843	1.030123	0.000122
 332	3.2934e+01	6.5923	95.883992	0.001074	10.742822	1.819883	0.000215
 333	3.3034e+01	6.6122	96.069701	0.000932	9.323959	1.579521	0.000187
 334	3.3133e+01	6.6320	96.202926	0.000669	6.688927	1.133135	0.000134
 335	3.3233e+01	6.6530	96.412857	0.001054	10.540127	1.785546	0.000211
 336	3.3333e+01	6.6728	96.594528	0.000912	9.121264	1.545184	0.000183
 337	3.3432e+01	6.6919	96.751977	0.000791	7.905095	1.339159	0.000158
 338	3.3532e+01	6.7129	96.945759	0.000973	9.729348	1.648196	0.000195
 339	3.3631e+01	6.7325	97.143579	0.000993	9.932043	1.682534	0.000199
 340	3.3730e+01	6.7530	97.288916	0.000730	7.297011	1.236147	0.000146
 341	3.3830e+01	6.7726	97.482698	0.000973	9.729348	1.648196	0.000195
 342	3.3929e+01	6.7910	97.692629	0.001054	10.540127	1.785546	0.000211
 343	3.4029e+01	6.8136	97.825855	0.000669	6.688927	1.133135	0.000134
 344	3.4129e+01	6.8313	97.995414	0.000851	8.513180	1.442172	0.000170
 345	3.4228e+01	6.8522	98.197271	0.001013	10.134738	1.716871	0.000203
 346	3.4328e+01	6.8710	98.342608	0.000730	7.297011	1.236147	0.000146
 347	3.4427e+01	6.8918	98.496019	0.000770	7.702401	1.304822	0.000154
 348	3.4526e+01	6.9117	98.709987	0.001074	10.742822	1.819883	0.000215
 349	3.4626e+01	6.9312	98.847250	0.000689	6.891622	1.167472	0.000138
 350	3.4725e+01	6.9503	99.036995	0.000953	9.526654	1.613859	0.000191
 351	3.4825e+01	6.9713	99.226741	0.000953	9.526654	1.613859	0.000191
 352	3.4925e+01	6.9905	99.380152	0.000770	7.702401	1.304822	0.000154
 353	3.5024e+01	7.0116	99.573934	0.000973	9.729348	1.648196	0.000195
 354	3.5123e+01	7.0307	99.731383	0.000791	7.905095	1.339159	0.000158
 355	3.5223e+01	7.0513	99.900942	0.000851	8.513180	1.442172	0.000170
 356	3.5322e+01	7.0705	100.050316	0.000750	7.499706	1.270485	0.000150
 357	3.5422e+01	7.0908	100.240062	0.000953	9.526654	1.613859	0.000191
 358	3.5522e+01	7.1104	100.421733	0.000912	9.121264	1.545184	0.000183
 359	3.5621e+01	7.1306	100.575144	0.000770	7.702401	1.304822	0.000154
 360	3.5721e+01	7.1502	100.728555	0.000770	7.702401	1.304822	0.000154
 361	3.5820e+01	7.1709	100.926375	0.000993	9.932043	1.682534	0.000199
 362	3.5919e+01	7.1905	101.079786	0.000770	7.702401	1.304822	0.000154
 363	3.6019e+01	7.2099	101.277606	0.000993	9.932043	1.682534	0.000199
 364	3.6118e+01	7.2298	101.431017	0.000770	7.702401	1.304822	0.000154
 365	3.6218e+01	7.2494	101.608651	0.000892	8.918569	1.510847	0.000179
 366	3.6318e+01	7.2707	101.762062	0.000770	7.702401	1.304822	0.000154
 367	3.6417e+01	7.2900	101.984104	0.001115	11.148212	1.888558	0.000223
 368	3.6517e+01	7.3087	102.117330	0.000669	6.688927	1.133135	0.000134
 369	3.6616e+01	7.3293	102.270741	0.000770	7.702401	1.304822	0.000154
 370	3.6715e+01	7.3492	102.428189	0.000791	7.905095	1.339159	0.000158
 371	3.6815e+01	7.3688	102.642158	0.001074	10.742822	1.819883	0.000215
 372	3.6914e+01	7.3891	102.767309	0.000628	6.283537	1.064460	0.000126
 373	3.7014e+01	7.4089	102.936868	0.000851	8.513180	1.442172	0.000170
 374	3.7114e+01	7.4300	103.126614	0.000953	9.526654	1.613859	0.000191
 375	3.7213e+01	7.4488	103.304248	0.000892	8.918569	1.510847	0.000179
 376	3.7313e+01	7.4694	103.457659	0.000770	7.702401	1.304822	0.000154
 377	3.7412e+01	7.4898	103.631256	0.000872	8.715875	1.476509	0.000174
 378	3.7511e+01	7.5098	103.804853	0.000872	8.715875	1.476509	0.000174
 379	3.7611e+01	7.5296	103.986524	0.000912	9.121264	1.545184	0.000183
 380	3.7711e+01	7.5481	104.083415	0.000486	4.864674	0.824098	0.000097
 381	3.7810e+01	7.5687	104.281235	0.000993	9.932043	1.682534	0.000199
 382	3.7910e+01	7.5887	104.450794	0.000851	8.513180	1.442172	0.000170
 383	3.8009e+01	7.6088	104.588057	0.000689	6.891622	1.167472	0.000138
 384	3.8108e+01	7.6286	104.806062	0.001095	10.945517	1.854221	0.000219
 385	3.8208e+01	7.6489	104.943325	0.000689	6.891622	1.167472	0.000138
 386	3.8307e+01	7.6678	105.120959	0.000892	8.918569	1.510847	0.000179
 387	3.8407e+01	7.6879	105.298593	0.000892	8.918569	1.510847	0.000179
 388	3.8507e+01	7.7084	105.443930	0.000730	7.297011	1.236147	0.000146
 389	3.8606e+01	7.7290	105.637712	0.000973	9.729348	1.648196	0.000195
 390	3.8706e+01	7.7480	105.823421	0.000932	9.323959	1.579521	0.000187
 391	3.8805e+01	7.7678	105.968757	0.000730	7.297011	1.236147	0.000146
 392	3.8904e+01	7.7875	106.114094	0.000730	7.297011	1.236147	0.000146
 393	3.9004e+01	7.8078	106.303840	0.000953	9.526654	1.613859	0.000191
 394	3.9103e+01	7.8277	106.465325	0.000811	8.107790	1.373497	0.000162
 395	3.9203e+01	7.8469	106.671219	0.001034	10.337433	1.751208	0.000207
 396	3.9303e+01	7.8672	106.776185	0.000527	5.270064	0.892773	0.000105
 397	3.9402e+01	7.8870	106.978041	0.001013	10.134738	1.716871	0.000203
 398	3.9502e+01	7.9073	107.127415	0.000750	7.499706	1.270485	0.000150
 399	3.9601e+01	7.9279	107.264678	0.000689	6.891622	1.167472	0.000138
 400	3.9700e+01	7.9474	107.422126	0.000791	7.905095	1.339159	0.000158
 401	3.9800e+01	7.9674	107.632057	0.001054	10.540127	1.785546	0.000211
 402	3.9900e+01	7.9861	107.789506	0.000791	7.905095	1.339159	0.000158
 403	3.9999e+01	8.0074	107.918694	0.000649	6.486232	1.098797	0.000130
 404	4.0099e+01	8.0267	108.132662	0.001074	10.742822	1.819883	0.000215
 405	4.0198e+01	8.0469	108.265888	0.000669	6.688927	1.133135	0.000134
 406	4.0297e+01	8.0656	108.415262	0.000750	7.499706	1.270485	0.000150
 407	4.0397e+01	8.0869	108.580784	0.000831	8.310485	1.407834	0.000166
 408	4.0496e+01	8.1071	108.734195	0.000770	7.702401	1.304822	0.000154
 409	4.0596e+01	8.1268	108.879532	0.000730	7.297011	1.236147	0.000146
 410	4.0696e+01	8.1469	109.081389	0.001013	10.134738	1.716871	0.000203
 411	4.0795e+01	8.1660	109.246912	0.000831	8.310485	1.407834	0.000166
 412	4.0895e+01	8.1866	109.372063	0.000628	6.283537	1.064460	0.000126
 413	4.0994e+01	8.2059	109.565845	0.000973	9.729348	1.648196	0.000195
 414	4.1093e+01	8.2260	109.686959	0.000608	6.080843	1.030123	0.000122
 415	4.1193e+01	8.2462	109.876705	0.000953	9.526654	1.613859	0.000191
 416	4.1292e+01	8.2652	110.038190	0.000811	8.107790	1.373497	0.000162
 417	4.1392e+01	8.2855	110.183527	0.000730	7.297011	1.236147	0.000146
 418	4.1492e+01	8.3050	110.296567	0.000568	5.675453	0.961448	0.000114
 419	4.1591e+01	8.3252	110.502461	0.001034	10.337433	1.751208	0.000207
 420	4.1691e+01	8.3459	110.643761	0.000709	7.094316	1.201810	0.000142
 421	4.1790e+01	8.3654	110.825432	0.000912	9.121264	1.545184	0.000183
 422	4.1889e+01	8.3846	110.974806	0.000750	7.499706	1.270485	0.000150
 423	4.1989e+01	8.4055	111.136291	0.000811	8.107790	1.373497	0.000162
 424	4.2089e+01	8.4254	111.277591	0.000709	7.094316	1.201810	0.000142
 425	4.2188e+01	8.4451	111.439076	0.000811	8.107790	1.373497	0.000162
 426	4.2288e+01	8.4649	111.620747	0.000912	9.121264	1.545184	0.000183
 427	4.2387e+01	8.4843	111.729750	0.000547	5.472758	0.927110	0.000110
 428	4.2486e+01	8.5043	111.935644	0.001034	10.337433	1.751208	0.000207
 429	4.2586e+01	8.5261	112.064832	0.000649	6.486232	1.098797	0.000130
 430	4.2685e+01	8.5451	112.214206	0.000750	7.499706	1.270485	0.000150
 431	4.2785e+01	8.5645	112.407989	0.000973	9.729348	1.648196	0.000195
 432	4.2885e+01	8.5833	112.525066	0.000588	5.878148	0.995785	0.000118
 433	4.2984e+01	8.6048	112.682514	0.000791	7.905095	1.339159	0.000158
 434	4.3084e+01	8.6251	112.880334	0.000993	9.932043	1.682534	0.000199
 435	4.3183e+01	8.6448	113.013559	0.000669	6.688927	1.133135	0.000134
 436	4.3282e+01	8.6646	113.195230	0.000912	9.121264	1.545184	0.000183
 437	4.3382e+01	8.6846	113.316344	0.000608	6.080843	1.030123	0.000122
 438	4.3481e+01	8.7040	113.510127	0.000973	9.729348	1.648196	0.000195
 439	4.3581e+01	8.7238	113.687761	0.000892	8.918569	1.510847	0.000179
 440	4.3681e+01	8.7444	113.812912	0.000628	6.283537	1.064460	0.000126
 441	4.3780e+01	8.7646	113.942101	0.000649	6.486232	1.098797	0.000130
 442	4.3880e+01	8.7827	114.139920	0.000993	9.932043	1.682534	0.000199
 443	4.3979e+01	8.8029	114.297368	0.000791	7.905095	1.339159	0.000158
 444	4.4078e+01	8.8233	114.454817	0.000791	7.905095	1.339159	0.000158
 445	4.4178e+01	8.8432	114.588042	0.000669	6.688927	1.133135	0.000134
 446	4.4278e+01	8.8630	114.745491	0.000791	7.905095	1.339159	0.000158
 447	4.4377e+01	8.8818	114.923124	0.000892	8.918569	1.510847	0.000179
 448	4.4477e+01	8.9034	115.064424	0.000709	7.094316	1.201810	0.000142
 449	4.4576e+01	8.9224	115.181501	0.000588	5.878148	0.995785	0.000118
 450	4.4675e+01	8.9411	115.371247	0.000953	9.526654	1.613859	0.000191
 451	4.4775e+01	8.9618	115.512546	0.000709	7.094316	1.201810	0.000142
 452	4.4874e+01	8.9822	115.686143	0.000872	8.715875	1.476509	0.000174
 453	4.4974e+01	9.0018	115.847629	0.000811	8.107790	1.373497	0.000162
 454	4.5074e+01	9.0217	115.964706	0.000588	5.878148	0.995785	0.000118
 455	4.5173e+01	9.0414	116.146377	0.000912	9.121264	1.545184	0.000183
 456	4.5273e+01	9.0620	116.299788	0.000770	7.702401	1.304822	0.000154
 457	4.5372e+01	9.0820	116.457236	0.000791	7.905095	1.339159	0.000158
 458	4.5471e+01	9.1010	116.582387	0.000628	6.283537	1.064460	0.000126
 459	4.5571e+01	9.1225	116.776170	0.000973	9.729348	1.648196	0.000195
 460	4.5670e+01	9.1415	116.921507	0.000730	7.297011	1.236147	0.000146
 461	4.5770e+01	9.1614	117.046658	0.000628	6.283537	1.064460	0.000126
 462	4.5870e+01	9.1810	117.232366	0.000932	9.323959	1.579521	0.000187
 463	4.5969e+01	9.2008	117.381740	0.000750	7.499706	1.270485	0.000150
 464	4.6069e+01	9.2216	117.559374	0.000892	8.918569	1.510847	0.000179
 465	4.6168e+01	9.2420	117.712785	0.000770	7.702401	1.304822	0.000154
 466	4.6267e+01	9.2608	117.854085	0.000709	7.094316	1.201810	0.000142
 467	4.6367e+01	9.2815	118.011533	0.000791	7.905095	1.339159	0.000158
 468	4.6467e+01	9.3006	118.189167	0.000892	8.918569	1.510847	0.000179
 469	4.6566e+01	9.3205	118.330467	0.000709	7.094316	1.201810	0.000142
 470	4.6666e+01	9.3401	118.447544	0.000588	5.878148	0.995785	0.000118
 471	4.6765e+01	9.3606	118.645364	0.000993	9.932043	1.682534	0.000199
 472	4.6864e+01	9.3805	118.806849	0.000811	8.107790	1.373497	0.000162
 473	4.6964e+01	9.4006	118.883555	0.000385	3.851200	0.652411	0.000077
 474	4.7063e+01	9.4202	119.065226	0.000912	9.121264	1.545184	0.000183
 475	4.7163e+01	9.4409	119.234785	0.000851	8.513180	1.442172	0.000170
 476	4.7263e+01	9.4593	119.396271	0.000811	8.107790	1.373497	0.000162
 477	4.7362e+01	9.4800	119.501236	0.000527	5.270064	0.892773	0.000105
 478	4.7462e+01	9.5004	119.690982	0.000953	9.526654	1.613859	0.000191
 479	4.7561e+01	9.5191	119.816133	0.000628	6.283537	1.064460	0.000126
 480	4.7660e+01	9.5393	119.993767	0.000892	8.918569	1.510847	0.000179
 481	4.7760e+01	9.5596	120.139104	0.000730	7.297011	1.236147	0.000146
 482	4.7859e+01	9.5801	120.300589	0.000811	8.107790	1.373497	0.000162
 483	4.7959e+01	9.5996	120.445926	0.000730	7.297011	1.236147	0.000146
 484	4.8059e+01	9.6191	120.567040	0.000608	6.080843	1.030123	0.000122
 485	4.8158e+01	9.6400	120.728526	0.000811	8.107790	1.373497	0.000162
 486	4.8258e+01	9.6599	120.890011	0.000811	8.107790	1.373497	0.000162
 487	4.8357e+01	9.6793	121.027274	0.000689	6.891622	1.167472	0.000138
 488	4.8456e+01	9.6989	121.180685	0.000770	7.702401	1.304822	0.000154
 489	4.8556e+01	9.7185	121.350245	0.000851	8.513180	1.442172	0.000170
 490	4.8656e+01	9.7392	121.491544	0.000709	7.094316	1.201810	0.000142
 491	4.8755e+01	9.7584	121.681290	0.000953	9.526654	1.613859	0.000191
 492	4.8855e+01	9.7793	121.818552	0.000689	6.891622	1.167472	0.000138
 493	4.8954e+01	9.7990	121.967926	0.000750	7.499706	1.270485	0.000150
 494	4.9053e+01	9.8187	122.133449	0.000831	8.310485	1.407834	0.000166
 495	4.9153e+01	9.8389	122.294934	0.000811	8.107790	1.373497	0.000162
 496	4.9252e+01	9.8574	122.468531	0.000872	8.715875	1.476509	0.000174
 497	4.9352e+01	9.8791	122.613868	0.000730	7.297011	1.236147	0.000146
 498	4.9452e+01	9.8987	122.751131	0.000689	6.891622	1.167472	0.000138
 499	4.9551e+01	9.9182	122.912616	0.000811	8.107790	1.373497	0.000162
 500	4.9651e+01	9.9377	123.057953	0.000730	7.297011	1.236147	0.000146
 501	4.9750e+01	9.9577	123.199253	0.000709	7.094316	1.201810	0.000142
 502	4.9849e+01	9.9790	123.380924	0.000912	9.121264	1.545184	0.000183
 503	4.9949e+01	9.9976	123.498001	0.000588	5.878148	0.995785	0.000118
 504	5.0048e+01	9.9776	123.449555	0.000243	2.432337	0.412049	-0.000049
 505	5.0148e+01	9.9582	123.340553	0.000547	5.472758	0.927110	-0.000110
 506	5.0248e+01	9.9386	123.304218	0.000182	1.824253	0.309037	-0.000037
 507	5.0347e+01	9.9182	123.215401	0.000446	4.459285	0.755423	-0.000089
 508	5.0447e+01	9.8978	123.142733	0.000365	3.648506	0.618074	-0.000073
 509	5.0546e+01	9.8794	123.009507	0.000669	6.688927	1.133135	-0.000134
 510	5.0645e+01	9.8587	122.928765	0.000405	4.053895	0.686748	-0.000081
 511	5.0745e+01	9.8382	122.795539	0.000669	6.688927	1.133135	-0.000134
 512	5.0844e+01	9.8187	122.743056	0.000264	2.635032	0.446386	-0.000053
 513	5.0944e+01	9.7977	122.654239	0.000446	4.459285	0.755423	-0.000089
 514	5.1044e+01	9.7803	122.533125	0.000608	6.080843	1.030123	-0.000122
 515	5.1143e+01	9.7590	122.476605	0.000284	2.837727	0.480724	-0.000057
 516	5.1242e+01	9.7379	122.367603	0.000547	5.472758	0.927110	-0.000110
 517	5.1342e+01	9.7192	122.238414	0.000649	6.486232	1.098797	-0.000130
 518	5.1441e+01	9.6985	122.121338	0.000588	5.878148	0.995785	-0.000118
 519	5.1541e+01	9.6796	122.048669	0.000365	3.648506	0.618074	-0.000073
 520	5.1641e+01	9.6588	121.935629	0.000568	5.675453	0.961448	-0.000114
 521	5.1740e+01	9.6396	121.846812	0.000446	4.459285	0.755423	-0.000089
 522	5.1840e+01	9.6198	121.733772	0.000568	5.675453	0.961448	-0.000114
 523	5.1939e+01	9.6002	121.608621	0.000628	6.283537	1.064460	-0.000126
 524	5.2038e+01	9.5794	121.548064	0.000304	3.040421	0.515061	-0.000061
 525	5.2138e+01	9.5605	121.414839	0.000669	6.688927	1.133135	-0.000134
 526	5.2237e+01	9.5400	121.334096	0.000405	4.053895	0.686748	-0.000081
 527	5.2337e+01	9.5197	121.204908	0.000649	6.486232	1.098797	-0.000130
 528	5.2437e+01	9.5001	121.095905	0.000547	5.472758	0.927110	-0.000110
 529	5.2536e+01	9.4801	120.986902	0.000547	5.472758	0.927110	-0.000110
 530	5.2636e+01	9.4595	120.861751	0.000628	6.283537	1.064460	-0.000126
 531	5.2735e+01	9.4392	120.781008	0.000405	4.053895	0.686748	-0.000081
 532	5.2834e+01	9.4205	120.700266	0.000405	4.053895	0.686748	-0.000081
 533	5.2934e+01	9.4009	120.571077	0.000649	6.486232	1.098797	-0.000130
 534	5.3033e+01	9.3809	120.417666	0.000770	7.702401	1.304822	-0.000154
 535	5.3133e+01	9.3607	120.365183	0.000264	2.635032	0.446386	-0.000053
 536	5.3233e+01	9.3409	120.219847	0.000730	7.297011	1.236147	-0.000146
 537	5.3332e+01	9.3213	120.098733	0.000608	6.080843	1.030123	-0.000122
 538	5.3431e+01	9.3018	119.981656	0.000588	5.878148	0.995785	-0.000118
 539	5.3531e+01	9.2807	119.880727	0.000507	5.067369	0.858436	-0.000101
 540	5.3630e+01	9.2612	119.767687	0.000568	5.675453	0.961448	-0.000114
 541	5.3730e+01	9.2411	119.686945	0.000405	4.053895	0.686748	-0.000081
 542	5.3830e+01	9.2207	119.533533	0.000770	7.702401	1.304822	-0.000154
 543	5.3929e+01	9.2010	119.444717	0.000446	4.459285	0.755423	-0.000089
 544	5.4029e+01	9.1817	119.335714	0.000547	5.472758	0.927110	-0.000110
 545	5.4128e+01	9.1620	119.194414	0.000709	7.094316	1.201810	-0.000142
 546	5.4227e+01	9.1409	119.081374	0.000568	5.675453	0.961448	-0.000114
 547	5.4327e+01	9.1219	118.988520	0.000466	4.661979	0.789761	-0.000093
 548	5.4426e+01	9.1016	118.847220	0.000709	7.094316	1.201810	-0.000142
 549	5.4526e+01	9.0813	118.689772	0.000791	7.905095	1.339159	-0.000158
 550	5.4626e+01	9.0625	118.625178	0.000324	3.243116	0.549399	-0.000065
 551	5.4725e+01	9.0414	118.500027	0.000628	6.283537	1.064460	-0.000126
 552	5.4825e+01	9.0216	118.403135	0.000486	4.864674	0.824098	-0.000097
 553	5.4924e+01	9.0025	118.298170	0.000527	5.270064	0.892773	-0.000105
 554	5.5023e+01	8.9825	118.148796	0.000750	7.499706	1.270485	-0.000150
 555	5.5123e+01	8.9619	118.047868	0.000507	5.067369	0.858436	-0.000101
 556	5.5222e+01	8.9429	117.914642	0.000669	6.688927	1.133135	-0.000134
 557	5.5322e+01	8.9220	117.777379	0.000689	6.891622	1.167472	-0.000138
 558	5.5422e+01	8.9026	117.700674	0.000385	3.851200	0.652411	-0.000077
 559	5.5521e+01	8.8818	117.587634	0.000568	5.675453	0.961448	-0.000114
 560	5.5620e+01	8.8631	117.422112	0.000831	8.310485	1.407834	-0.000166
 561	5.5720e+01	8.8428	117.317146	0.000527	5.270064	0.892773	-0.000105
 562	5.5819e+01	8.8236	117.196032	0.000608	6.080843	1.030123	-0.000122
 563	5.5919e+01	8.8042	117.074918	0.000608	6.080843	1.030123	-0.000122
 564	5.6019e+01	8.7836	116.961878	0.000568	5.675453	0.961448	-0.000114
 565	5.6118e+01	8.7638	116.873061	0.000446	4.459285	0.755423	-0.000089
 566	5.6218e+01	8.7438	116.739836	0.000669	6.688927	1.133135	-0.000134
 567	5.6317e+01	8.7237	116.594499	0.000730	7.297011	1.236147	-0.000146
 568	5.6416e+01	8.7034	116.485496	0.000547	5.472758	0.927110	-0.000110
 569	5.6516e+01	8.6848	116.388605	0.000486	4.864674	0.824098	-0.000097
 570	5.6615e+01	8.6636	116.239231	0.000750	7.499706	1.270485	-0.000150
 571	5.6715e+01	8.6451	116.114080	0.000628	6.283537	1.064460	-0.000126
 572	5.6815e+01	8.6246	115.992965	0.000608	6.080843	1.030123	-0.000122
 573	5.6914e+01	8.6042	115.871851	0.000608	6.080843	1.030123	-0.000122
 574	5.7014e+01	8.5840	115.734589	0.000689	6.891622	1.167472	-0.000138
 575	5.7113e+01	8.5653	115.645772	0.000446	4.459285	0.755423	-0.000089
 576	5.7212e+01	8.5449	115.472175	0.000872	8.715875	1.476509	-0.000174
 577	5.7312e+01	8.5255	115.371247	0.000507	5.067369	0.858436	-0.000101
 578	5.7411e+01	8.5046	115.233984	0.000689	6.891622	1.167472	-0.000138
 579	5.7511e+01	8.4853	115.096721	0.000689	6.891622	1.167472	-0.000138
 580	5.7611e+01	8.4641	115.048276	0.000243	2.432337	0.412049	-0.000049
 581	5.7710e+01	8.4458	114.834308	0.001074	10.742822	1.819883	-0.000215
 582	5.7809e+01	8.4258	114.741453	0.000466	4.661979	0.789761	-0.000093
 583	5.7909e+01	8.4046	114.592079	0.000750	7.499706	1.270485	-0.000150
 584	5.8008e+01	8.3847	114.491151	0.000507	5.067369	0.858436	-0.000101
 585	5.8108e+01	8.3663	114.345814	0.000730	7.297011	1.236147	-0.000146
 586	5.8208e+01	8.3457	114.220663	0.000628	6.283537	1.064460	-0.000126
 587	5.8307e+01	8.3262	114.051103	0.000851	8.513180	1.442172	-0.000170
 588	5.8407e+01	8.3063	113.946138	0.000527	5.270064	0.892773	-0.000105
 589	5.8506e+01	8.2864	113.820986	0.000628	6.283537	1.064460	-0.000126
 590	5.8605e+01	8.2655	113.663538	0.000791	7.905095	1.339159	-0.000158
 591	5.8705e+01	8.2458	113.542424	0.000608	6.080843	1.030123	-0.000122
 592	5.8804e+01	8.2249	113.417273	0.000628	6.283537	1.064460	-0.000126
 593	5.8904e+01	8.2064	113.320382	0.000486	4.864674	0.824098	-0.000097
 594	5.9004e+01	8.1861	113.146785	0.000872	8.715875	1.476509	-0.000174
 595	5.9103e+01	8.1669	113.025671	0.000608	6.080843	1.030123	-0.000122
 596	5.9203e+01	8.1460	112.896482	0.000649	6.486232	1.098797	-0.000130
 597	5.9302e+01	8.1270	112.791517	0.000527	5.270064	0.892773	-0.000105
 598	5.9401e+01	8.1067	112.609846	0.000912	9.121264	1.545184	-0.000183
 599	5.9501e+01	8.0875	112.508917	0.000507	5.067369	0.858436	-0.000101
 600	5.9600e+01	8.0665	112.391840	0.000588	5.878148	0.995785	-0.000118
 601	5.9700e+01	8.0474	112.250541	0.000709	7.094316	1.201810	-0.000142
 602	5.9800e+01	8.0257	112.125389	0.000628	6.283537	1.064460	-0.000126
 603	5.9899e+01	8.0065	112.008312	0.000588	5.878148	0.995785	-0.000118
 604	5.9998e+01	7.9861	111.858938	0.000750	7.499706	1.270485	-0.000150
 605	6.0098e+01	7.9675	111.705527	0.000770	7.702401	1.304822	-0.000154
 606	6.0197e+01	7.9469	111.596525	0.000547	5.472758	0.927110	-0.000110
 607	6.0297e+01	7.9274	111.471373	0.000628	6.283537	1.064460	-0.000126
 608	6.0397e+01	7.9066	111.346222	0.000628	6.283537	1.064460	-0.000126
 609	6.0496e+01	7.8884	111.176663	0.000851	8.513180	1.442172	-0.000170
 610	6.0596e+01	7.8672	111.027288	0.000750	7.499706	1.270485	-0.000150
 611	6.0695e+01	7.8481	110.946546	0.000405	4.053895	0.686748	-0.000081
 612	6.0794e+01	7.8278	110.813320	0.000669	6.688927	1.133135	-0.000134
 613	6.0894e+01	7.8085	110.680095	0.000669	6.688927	1.133135	-0.000134
 614	6.0993e+01	7.7881	110.526684	0.000770	7.702401	1.304822	-0.000154
 615	6.1093e+01	7.7686	110.393458	0.000669	6.688927	1.133135	-0.000134
 616	6.1193e+01	7.7475	110.227936	0.000831	8.310485	1.407834	-0.000166
 617	6.1292e+01	7.7280	110.098747	0.000649	6.486232	1.098797	-0.000130
 618	6.1392e+01	7.7085	109.965522	0.000669	6.688927	1.133135	-0.000134
 619	6.1491e+01	7.6881	109.852482	0.000568	5.675453	0.961448	-0.000114
 620	6.1590e+01	7.6691	109.735405	0.000588	5.878148	0.995785	-0.000118
 621	6.1690e+01	7.6486	109.590068	0.000730	7.297011	1.236147	-0.000146
 622	6.1789e+01	7.6284	109.420508	0.000851	8.513180	1.442172	-0.000170
 623	6.1889e+01	7.6092	109.275172	0.000730	7.297011	1.236147	-0.000146
 624	6.1989e+01	7.5892	109.194429	0.000405	4.053895	0.686748	-0.000081
 625	6.2088e+01	7.5688	109.049092	0.000730	7.297011	1.236147	-0.000146
 626	6.2188e+01	7.5489	108.895681	0.000770	7.702401	1.304822	-0.000154
 627	6.2287e+01	7.5293	108.770530	0.000628	6.283537	1.064460	-0.000126
 628	6.2386e+01	7.5094	108.605007	0.000831	8.310485	1.407834	-0.000166
 629	6.2486e+01	7.4897	108.520227	0.000426	4.256590	0.721086	-0.000085
 630	6.2586e+01	7.4694	108.338556	0.000912	9.121264	1.545184	-0.000183
 631	6.2685e+01	7.4491	108.201293	0.000689	6.891622	1.167472	-0.000138
 632	6.2785e+01	7.4287	108.076142	0.000628	6.283537	1.064460	-0.000126
 633	6.2884e+01	7.4096	107.910620	0.000831	8.310485	1.407834	-0.000166
 634	6.2983e+01	7.3898	107.809691	0.000507	5.067369	0.858436	-0.000101
 635	6.3083e+01	7.3689	107.664354	0.000730	7.297011	1.236147	-0.000146
 636	6.3182e+01	7.3483	107.551315	0.000568	5.675453	0.961448	-0.000114
 637	6.3282e+01	7.3302	107.397903	0.000770	7.702401	1.304822	-0.000154
 638	6.3382e+01	7.3098	107.248529	0.000750	7.499706	1.270485	-0.000150
 639	6.3481e+01	7.2903	107.070895	0.000892	8.918569	1.510847	-0.000179
 640	6.3581e+01	7.2701	106.945744	0.000628	6.283537	1.064460	-0.000126
 641	6.3680e+01	7.2511	106.776185	0.000851	8.513180	1.442172	-0.000170
 642	6.3779e+01	7.2292	106.679293	0.000486	4.864674	0.824098	-0.000097
 643	6.3879e+01	7.2095	106.558179	0.000608	6.080843	1.030123	-0.000122
 644	6.3978e+01	7.1912	106.380545	0.000892	8.918569	1.510847	-0.000179
 645	6.4078e+01	7.1706	106.267505	0.000568	5.675453	0.961448	-0.000114
 646	6.4177e+01	7.1507	106.122169	0.000730	7.297011	1.236147	-0.000146
 647	6.4277e+01	7.1307	105.960683	0.000811	8.107790	1.373497	-0.000162
 648	6.4376e+01	7.1099	105.795161	0.000831	8.310485	1.407834	-0.000166
 649	6.4476e+01	7.0902	105.657898	0.000689	6.891622	1.167472	-0.000138
 650	6.4576e+01	7.0705	105.532747	0.000628	6.283537	1.064460	-0.000126
 651	6.4675e+01	7.0509	105.375298	0.000791	7.905095	1.339159	-0.000158
 652	6.4775e+01	7.0296	105.221887	0.000770	7.702401	1.304822	-0.000154
 653	6.4874e+01	7.0110	105.088662	0.000669	6.688927	1.133135	-0.000134
 654	6.4974e+01	6.9908	104.935251	0.000770	7.702401	1.304822	-0.000154
 655	6.5073e+01	6.9709	104.846434	0.000446	4.459285	0.755423	-0.000089
 656	6.5172e+01	6.9510	104.612280	0.001176	11.756296	1.991570	-0.000235
 657	6.5272e+01	6.9315	104.551723	0.000304	3.040421	0.515061	-0.000061
 658	6.5371e+01	6.9115	104.370052	0.000912	9.121264	1.545184	-0.000183
 659	6.5471e+01	6.8917	104.220678	0.000750	7.499706	1.270485	-0.000150
 660	6.5570e+01	6.8712	104.075341	0.000730	7.297011	1.236147	-0.000146
 661	6.5670e+01	6.8523	103.958264	0.000588	5.878148	0.995785	-0.000118
 662	6.5769e+01	6.8316	103.804853	0.000770	7.702401	1.304822	-0.000154
 663	6.5869e+01	6.8119	103.691813	0.000568	5.675453	0.961448	-0.000114
 664	6.5969e+01	6.7914	103.550513	0.000709	7.094316	1.201810	-0.000142
 665	6.6068e+01	6.7726	103.376916	0.000872	8.715875	1.476509	-0.000174
 666	6.6168e+01	6.7519	103.239654	0.000689	6.891622	1.167472	-0.000138
 667	6.6267e+01	6.7323	103.134688	0.000527	5.270064	0.892773	-0.000105
 668	6.6367e+01	6.7125	102.973203	0.000811	8.107790	1.373497	-0.000162
 669	6.6466e+01	6.6915	102.827866	0.000730	7.297011	1.236147	-0.000146
 670	6.6566e+01	6.6706	102.670418	0.000791	7.905095	1.339159	-0.000158
 671	6.6665e+01	6.6517	102.569489	0.000507	5.067369	0.858436	-0.000101
 672	6.6764e+01	6.6321	102.379744	0.000953	9.526654	1.613859	-0.000191
 673	6.6864e+01	6.6131	102.238444	0.000709	7.094316	1.201810	-0.000142
 674	6.6963e+01	6.5920	102.109256	0.000649	6.486232	1.098797	-0.000130
 675	6.7063e+01	6.5730	101.939696	0.000851	8.513180	1.442172	-0.000170
 676	6.7162e+01	6.5520	101.782248	0.000791	7.905095	1.339159	-0.000158
 677	6.7262e+01	6.5325	101.649022	0.000669	6.688927	1.133135	-0.000134
 678	6.7362e+01	6.5133	101.487537	0.000811	8.107790	1.373497	-0.000162
 679	6.7461e+01	6.4934	101.362386	0.000628	6.283537	1.064460	-0.000126
 680	6.7561e+01	6.4737	101.192826	0.000851	8.513180	1.442172	-0.000170
 681	6.7660e+01	6.4541	101.071712	0.000608	6.080843	1.030123	-0.000122
 682	6.7760e+01	6.4344	100.926375	0.000730	7.297011	1.236147	-0.000146
 683	6.7859e+01	6.4129	100.781038	0.000730	7.297011	1.236147	-0.000146
 684	6.7959e+01	6.3930	100.623590	0.000791	7.905095	1.339159	-0.000158
 685	6.8058e+01	6.3703	100.470179	0.000770	7.702401	1.304822	-0.000154
 686	6.8157e+01	6.3534	100.332916	0.000689	6.891622	1.167472	-0.000138
 687	6.8257e+01	6.3342	100.163356	0.000851	8.513180	1.442172	-0.000170
 688	6.8356e+01	6.3135	100.018019	0.000730	7.297011	1.236147	-0.000146
 689	6.8456e+01	6.2942	99.860571	0.000791	7.905095	1.339159	-0.000158
 690	6.8555e+01	6.2747	99.715234	0.000730	7.297011	1.236147	-0.000146
 691	6.8655e+01	6.2542	99.565860	0.000750	7.499706	1.270485	-0.000150
 692	6.8754e+01	6.2354	99.416486	0.000750	7.499706	1.270485	-0.000150
 693	6.8854e+01	6.2145	99.275186	0.000709	7.094316	1.201810	-0.000142
 694	6.8954e+01	6.1942	99.150035	0.000628	6.283537	1.064460	-0.000126
 695	6.9053e+01	6.1749	98.976438	0.000872	8.715875	1.476509	-0.000174
 696	6.9153e+01	6.1550	98.823027	0.000770	7.702401	1.304822	-0.000154
 697	6.9252e+01	6.1355	98.681727	0.000709	7.094316	1.201810	-0.000142
 698	6.9352e+01	6.1150	98.532353	0.000750	7.499706	1.270485	-0.000150
 699	6.9451e+01	6.0944	98.374905	0.000791	7.905095	1.339159	-0.000158
 700	6.9550e+01	6.0748	98.237642	0.000689	6.891622	1.167472	-0.000138
 701	6.9650e+01	6.0548	98.055971	0.000912	9.121264	1.545184	-0.000183
 702	6.9749e+01	6.0352	97.886412	0.000851	8.513180	1.442172	-0.000170
 703	6.9849e+01	6.0149	97.769335	0.000588	5.878148	0.995785	-0.000118
 704	6.9948e+01	5.9953	97.611886	0.000791	7.905095	1.339159	-0.000158
 705	7.0048e+01	5.9761	97.458475	0.000770	7.702401	1.304822	-0.000154
 706	7.0147e+01	5.9560	97.284878	0.000872	8.715875	1.476509	-0.000174
 707	7.0247e+01	5.9356	97.103207	0.000912	9.121264	1.545184	-0.000183
 708	7.0347e+01	5.9156	96.974019	0.000649	6.486232	1.098797	-0.000130
 709	7.0446e+01	5.8950	96.796385	0.000892	8.918569	1.510847	-0.000179
 710	7.0546e+01	5.8761	96.675271	0.000608	6.080843	1.030123	-0.000122
 711	7.0645e+01	5.8566	96.497637	0.000892	8.918569	1.510847	-0.000179
 712	7.0745e+01	5.8366	96.368449	0.000649	6.486232	1.098797	-0.000130
 713	7.0844e+01	5.8163	96.219075	0.000750	7.499706	1.270485	-0.000150
 714	7.0944e+01	5.7955	96.001069	0.001095	10.945517	1.854221	-0.000219
 715	7.1043e+01	5.7768	95.879955	0.000608	6.080843	1.030123	-0.000122
 716	7.1142e+01	5.7557	95.722507	0.000791	7.905095	1.339159	-0.000158
 717	7.1242e+01	5.7359	95.581207	0.000709	7.094316	1.201810	-0.000142
 718	7.1341e+01	5.7165	95.423759	0.000791	7.905095	1.339159	-0.000158
 719	7.1441e+01	5.6965	95.262273	0.000811	8.107790	1.373497	-0.000162
 720	7.1540e+01	5.6765	95.116937	0.000730	7.297011	1.236147	-0.000146
 721	7.1640e+01	5.6567	94.963525	0.000770	7.702401	1.304822	-0.000154
 722	7.1740e+01	5.6370	94.834337	0.000649	6.486232	1.098797	-0.000130
 723	7.1839e+01	5.6178	94.648629	0.000932	9.323959	1.579521	-0.000187
 724	7.1939e+01	5.5962	94.487143	0.000811	8.107790	1.373497	-0.000162
 725	7.2038e+01	5.5772	94.321621	0.000831	8.310485	1.407834	-0.000166
 726	7.2138e+01	5.5569	94.135913	0.000932	9.323959	1.579521	-0.000187
 727	7.2237e+01	5.5373	94.002687	0.000669	6.688927	1.133135	-0.000134
 728	7.2337e+01	5.5168	93.845239	0.000791	7.905095	1.339159	-0.000158
 729	7.2436e+01	5.4974	93.671642	0.000872	8.715875	1.476509	-0.000174
 730	7.2535e+01	5.4772	93.514194	0.000791	7.905095	1.339159	-0.000158
 731	7.2635e+01	5.4574	93.364820	0.000750	7.499706	1.270485	-0.000150
 732	7.2734e+01	5.4375	93.203334	0.000811	8.107790	1.373497	-0.000162
 733	7.2834e+01	5.4182	93.013589	0.000953	9.526654	1.613859	-0.000191
 734	7.2933e+01	5.3982	92.868252	0.000730	7.297011	1.236147	-0.000146
 735	7.3033e+01	5.3777	92.743101	0.000628	6.283537	1.064460	-0.000126
 736	7.3132e+01	5.3579	92.585652	0.000791	7.905095	1.339159	-0.000158
 737	7.3232e+01	5.3374	92.420130	0.000831	8.310485	1.407834	-0.000166
 738	7.3332e+01	5.3194	92.250570	0.000851	8.513180	1.442172	-0.000170
 739	7.3431e+01	5.2981	92.089085	0.000811	8.107790	1.373497	-0.000162
 740	7.3531e+01	5.2781	91.923562	0.000831	8.310485	1.407834	-0.000166
 741	7.3630e+01	5.2580	91.749965	0.000872	8.715875	1.476509	-0.000174
 742	7.3730e+01	5.2386	91.568294	0.000912	9.121264	1.545184	-0.000183
 743	7.3829e+01	5.2192	91.418920	0.000750	7.499706	1.270485	-0.000150
 744	7.3928e+01	5.1984	91.257435	0.000811	8.107790	1.373497	-0.000162
 745	7.4028e+01	5.1781	91.104024	0.000770	7.702401	1.304822	-0.000154
 746	7.4127e+01	5.1583	90.914278	0.000953	9.526654	1.613859	-0.000191
 747	7.4227e+01	5.1386	90.785090	0.000649	6.486232	1.098797	-0.000130
 748	7.4326e+01	5.1180	90.579196	0.001034	10.337433	1.751208	-0.000207
 749	7.4426e+01	5.0982	90.433859	0.000730	7.297011	1.236147	-0.000146
 750	7.4525e+01	5.0789	90.256225	0.000892	8.918569	1.510847	-0.000179
 751	7.4625e+01	5.0591	90.102814	0.000770	7.702401	1.304822	-0.000154
 752	7.4725e+01	5.0399	89.945366	0.000791	7.905095	1.339159	-0.000158
 753	7.4824e+01	5.0209	89.731397	0.001074	10.742822	1.819883	-0.000215
 754	7.4924e+01	4.9996	89.573949	0.000791	7.905095	1.339159	-0.000158
 755	7.5023e+01	4.9796	89.432649	0.000709	7.094316	1.201810	-0.000142
 756	7.5123e+01	4.9593	89.234830	0.000993	9.932043	1.682534	-0.000199
 757	7.5222e+01	4.9396	89.077381	0.000791	7.905095	1.339159	-0.000158
 758	7.5322e+01	4.9197	88.895710	0.000912	9.121264	1.545184	-0.000183
 759	7.5421e+01	4.8995	88.722114	0.000872	8.715875	1.476509	-0.000174
 760	7.5520e+01	4.8803	88.596962	0.000628	6.283537	1.064460	-0.000126
 761	7.5620e+01	4.8608	88.403180	0.000973	9.729348	1.648196	-0.000195
 762	7.5719e+01	4.8396	88.233620	0.000851	8.513180	1.442172	-0.000170
 763	7.5819e+01	4.8199	88.072135	0.000811	8.107790	1.373497	-0.000162
 764	7.5918e+01	4.7993	87.882389	0.000953	9.526654	1.613859	-0.000191
 765	7.6018e+01	4.7807	87.753201	0.000649	6.486232	1.098797	-0.000130
 766	7.6118e+01	4.7599	87.527121	0.001135	11.350906	1.922896	-0.000227
 767	7.6217e+01	4.7410	87.369673	0.000791	7.905095	1.339159	-0.000158
 768	7.6317e+01	4.7207	87.212225	0.000791	7.905095	1.339159	-0.000158
 769	7.6416e+01	4.7007	87.062851	0.000750	7.499706	1.270485	-0.000150
 770	7.6516e+01	4.6814	86.893291	0.000851	8.513180	1.442172	-0.000170
 771	7.6615e+01	4.6600	86.691434	0.001013	10.134738	1.716871	-0.000203
 772	7.6715e+01	4.6400	86.570320	0.000608	6.080843	1.030123	-0.000122
 773	7.6814e+01	4.6204	86.352315	0.001095	10.945517	1.854221	-0.000219
 774	7.6913e+01	4.6006	86.170644	0.000912	9.121264	1.545184	-0.000183
 775	7.7013e+01	4.5812	86.025307	0.000730	7.297011	1.236147	-0.000146
 776	7.7112e+01	4.5609	85.823450	0.001013	10.134738	1.716871	-0.000203
 777	7.7212e+01	4.5416	85.657928	0.000831	8.310485	1.407834	-0.000166
 778	7.7311e+01	4.5211	85.476256	0.000912	9.121264	1.545184	-0.000183
 779	7.7411e+01	4.5010	85.306697	0.000851	8.513180	1.442172	-0.000170
 780	7.7510e+01	4.4807	85.185583	0.000608	6.080843	1.030123	-0.000122
 781	7.7610e+01	4.4611	84.959503	0.001135	11.350906	1.922896	-0.000227
 782	7.7710e+01	4.4410	84.810129	0.000750	7.499706	1.270485	-0.000150
 783	7.7809e+01	4.4213	84.628458	0.000912	9.121264	1.545184	-0.000183
 784	7.7909e+01	4.4022	84.471010	0.000791	7.905095	1.339159	-0.000158
 785	7.8008e+01	4.3827	84.277227	0.000973	9.729348	1.648196	-0.000195
 786	7.8108e+01	4.3619	84.063259	0.001074	10.742822	1.819883	-0.000215
 787	7.8207e+01	4.3423	83.938108	0.000628	6.283537	1.064460	-0.000126
 788	7.8306e+01	4.3227	83.752399	0.000932	9.323959	1.579521	-0.000187
 789	7.8406e+01	4.3024	83.566691	0.000932	9.323959	1.579521	-0.000187
 790	7.8505e+01	4.2826	83.413280	0.000770	7.702401	1.304822	-0.000154
 791	7.8605e+01	4.2625	83.203349	0.001054	10.540127	1.785546	-0.000211
 792	7.8704e+01	4.2417	83.041864	0.000811	8.107790	1.373497	-0.000162
 793	7.8804e+01	4.2222	82.888452	0.000770	7.702401	1.304822	-0.000154
 794	7.8903e+01	4.2039	82.722930	0.000831	8.310485	1.407834	-0.000166
 795	7.9003e+01	4.1824	82.512999	0.001054	10.540127	1.785546	-0.000211
 796	7.9103e+01	4.1622	82.363625	0.000750	7.499706	1.270485	-0.000150
 797	7.9202e+01	4.1431	82.198102	0.000831	8.310485	1.407834	-0.000166
 798	7.9302e+01	4.1231	82.012394	0.000932	9.323959	1.579521	-0.000187
 799	7.9401e+01	4.1029	81.846871	0.000831	8.310485	1.407834	-0.000166
 800	7.9501e+01	4.0834	81.673275	0.000872	8.715875	1.476509	-0.000174
 801	7.9600e+01	4.0642	81.451232	0.001115	11.148212	1.888558	-0.000223
 802	7.9700e+01	4.0427	81.273598	0.000892	8.918569	1.510847	-0.000179
 803	7.9799e+01	4.0228	81.132298	0.000709	7.094316	1.201810	-0.000142
 804	7.9898e+01	4.0031	80.942553	0.000953	9.526654	1.613859	-0.000191
 805	7.9998e+01	3.9831	80.764919	0.000892	8.918569	1.510847	-0.000179
 806	8.0097e+01	3.9632	80.587285	0.000892	8.918569	1.510847	-0.000179
 807	8.0197e+01	3.9429	80.401577	0.000932	9.323959	1.579521	-0.000187
 808	8.0296e+01	3.9234	80.215869	0.000932	9.323959	1.579521	-0.000187
 809	8.0396e+01	3.9037	80.022086	0.000973	9.729348	1.648196	-0.000195
 810	8.0496e+01	3.8834	79.836378	0.000932	9.323959	1.579521	-0.000187
 811	8.0595e+01	3.8641	79.658744	0.000892	8.918569	1.510847	-0.000179
 812	8.0695e+01	3.8436	79.493221	0.000831	8.310485	1.407834	-0.000166
 813	8.0794e+01	3.8247	79.295402	0.000993	9.932043	1.682534	-0.000199
 814	8.0894e+01	3.8025	79.121805	0.000872	8.715875	1.476509	-0.000174
 815	8.0993e+01	3.7833	78.944171	0.000892	8.918569	1.510847	-0.000179
 816	8.1093e+01	3.7656	78.798834	0.000730	7.297011	1.236147	-0.000146
 817	8.1192e+01	3.7447	78.564680	0.001176	11.756296	1.991570	-0.000235
 818	8.1291e+01	3.7249	78.407232	0.000791	7.905095	1.339159	-0.000158
 819	8.1391e+01	3.7040	78.217486	0.000953	9.526654	1.613859	-0.000191
 820	8.1490e+01	3.6854	78.019667	0.000993	9.932043	1.682534	-0.000199
 821	8.1590e+01	3.6657	77.829921	0.000953	9.526654	1.613859	-0.000191
 822	8.1689e+01	3.6441	77.636139	0.000973	9.729348	1.648196	-0.000195
 823	8.1789e+01	3.6250	77.434282	0.001013	10.134738	1.716871	-0.000203
 824	8.1888e+01	3.6050	77.301057	0.000669	6.688927	1.133135	-0.000134
 825	8.1988e+01	3.5852	77.091125	0.001054	10.540127	1.785546	-0.000211
 826	8.2088e+01	3.5650	76.937714	0.000770	7.702401	1.304822	-0.000154
 827	8.2187e+01	3.5453	76.752006	0.000932	9.323959	1.579521	-0.000187
 828	8.2287e+01	3.5251	76.546112	0.001034	10.337433	1.751208	-0.000207
 829	8.2386e+01	3.5057	76.352330	0.000973	9.729348	1.648196	-0.000195
 830	8.2486e+01	3.4862	76.219104	0.000669	6.688927	1.133135	-0.000134
 831	8.2585e+01	3.4653	76.001099	0.001095	10.945517	1.854221	-0.000219
 832	8.2684e+01	3.4450	75.831539	0.000851	8.513180	1.442172	-0.000170
 833	8.2784e+01	3.4270	75.666017	0.000831	8.310485	1.407834	-0.000166
 834	8.2883e+01	3.4060	75.456086	0.001054	10.540127	1.785546	-0.000211
 835	8.2983e+01	3.3855	75.298637	0.000791	7.905095	1.339159	-0.000158
 836	8.3082e+01	3.3663	75.116966	0.000912	9.121264	1.545184	-0.000183
 837	8.3182e+01	3.3463	74.927221	0.000953	9.526654	1.613859	-0.000191
 838	8.3281e+01	3.3277	74.721327	0.001034	10.337433	1.751208	-0.000207
 839	8.3381e+01	3.3060	74.527544	0.000973	9.729348	1.648196	-0.000195
 840	8.3481e+01	3.2862	74.370096	0.000791	7.905095	1.339159	-0.000158
 841	8.3580e+01	3.2655	74.192462	0.000892	8.918569	1.510847	-0.000179
 842	8.3680e+01	3.2464	73.994642	0.000993	9.932043	1.682534	-0.000199
 843	8.3779e+01	3.2267	73.800860	0.000973	9.729348	1.648196	-0.000195
 844	8.3879e+01	3.2060	73.582855	0.001095	10.945517	1.854221	-0.000219
 845	8.3978e+01	3.1869	73.437518	0.000730	7.297011	1.236147	-0.000146
 846	8.4078e+01	3.1672	73.239698	0.000993	9.932043	1.682534	-0.000199
 847	8.4177e+01	3.1462	73.037841	0.001013	10.134738	1.716871	-0.000203
 848	8.4276e+01	3.1275	72.872319	0.000831	8.310485	1.407834	-0.000166
 849	8.4376e+01	3.1070	72.698722	0.000872	8.715875	1.476509	-0.000174
 850	8.4475e+01	3.0868	72.525125	0.000872	8.715875	1.476509	-0.000174
 851	8.4575e+01	3.0677	72.311157	0.001074	10.742822	1.819883	-0.000215
 852	8.4674e+01	3.0479	72.105263	0.001034	10.337433	1.751208	-0.000207
 853	8.4774e+01	3.0272	71.907443	0.000993	9.932043	1.682534	-0.000199
 854	8.4874e+01	3.0077	71.713661	0.000973	9.729348	1.648196	-0.000195
 855	8.4973e+01	2.9874	71.527952	0.000932	9.323959	1.579521	-0.000187
 856	8.5073e+01	2.9678	71.346281	0.000912	9.121264	1.545184	-0.000183
 857	8.5172e+01	2.9479	71.132313	0.001074	10.742822	1.819883	-0.000215
 858	8.5272e+01	2.9274	70.942568	0.000953	9.526654	1.613859	-0.000191
 859	8.5371e+01	2.9085	70.768971	0.000872	8.715875	1.476509	-0.000174
 860	8.5471e+01	2.8872	70.550966	0.001095	10.945517	1.854221	-0.000219
 861	8.5570e+01	2.8680	70.421777	0.000649	6.486232	1.098797	-0.000130
 862	8.5669e+01	2.8477	70.191661	0.001155	11.553601	1.957233	-0.000231
 863	8.5769e+01	2.8275	69.993841	0.000993	9.932043	1.682534	-0.000199
 864	8.5868e+01	2.8075	69.787947	0.001034	10.337433	1.751208	-0.000207
 865	8.5968e+01	2.7888	69.662796	0.000628	6.283537	1.064460	-0.000126
 866	8.6067e+01	2.7686	69.452865	0.001054	10.540127	1.785546	-0.000211
 867	8.6167e+01	2.7482	69.246971	0.001034	10.337433	1.751208	-0.000207
 868	8.6266e+01	2.7282	69.057225	0.000953	9.526654	1.613859	-0.000191
 869	8.6366e+01	2.7087	68.810960	0.001236	12.364380	2.094583	-0.000248
 870	8.6466e+01	2.6885	68.681772	0.000649	6.486232	1.098797	-0.000130
 871	8.6565e+01	2.6685	68.487989	0.000973	9.729348	1.648196	-0.000195
 872	8.6665e+01	2.6482	68.261910	0.001135	11.350906	1.922896	-0.000227
 873	8.6764e+01	2.6290	68.051979	0.001054	10.540127	1.785546	-0.000211
 874	8.6864e+01	2.6083	67.874345	0.000892	8.918569	1.510847	-0.000179
 875	8.6963e+01	2.5883	67.688636	0.000932	9.323959	1.579521	-0.000187
 876	8.7063e+01	2.5684	67.502928	0.000932	9.323959	1.579521	-0.000187
 877	8.7162e+01	2.5495	67.288960	0.001074	10.742822	1.819883	-0.000215
 878	8.7261e+01	2.5290	67.083066	0.001034	10.337433	1.751208	-0.000207
 879	8.7361e+01	2.5097	66.933692	0.000750	7.499706	1.270485	-0.000150
 880	8.7460e+01	2.4899	66.727798	0.001034	10.337433	1.751208	-0.000207
 881	8.7560e+01	2.4696	66.497681	0.001155	11.553601	1.957233	-0.000231
 882	8.7659e+01	2.4498	66.328122	0.000851	8.513180	1.442172	-0.000170
 883	8.7759e+01	2.4300	66.126265	0.001013	10.134738	1.716871	-0.000203
 884	8.7859e+01	2.4082	65.896148	0.001155	11.553601	1.957233	-0.000231
 885	8.7958e+01	2.3905	65.730626	0.000831	8.310485	1.407834	-0.000166
 886	8.8058e+01	2.3692	65.536843	0.000973	9.729348	1.648196	-0.000195
 887	8.8157e+01	2.3512	65.322875	0.001074	10.742822	1.819883	-0.000215
 888	8.8257e+01	2.3287	65.133129	0.000953	9.526654	1.613859	-0.000191
 889	8.8356e+01	2.3099	64.882827	0.001257	12.567075	2.128920	-0.000252
 890	8.8456e+01	2.2903	64.753639	0.000649	6.486232	1.098797	-0.000130
 891	8.8555e+01	2.2705	64.527559	0.001135	11.350906	1.922896	-0.000227
 892	8.8654e+01	2.2505	64.349925	0.000892	8.918569	1.510847	-0.000179
 893	8.8754e+01	2.2307	64.135957	0.001074	10.742822	1.819883	-0.000215
 894	8.8853e+01	2.2110	63.942174	0.000973	9.729348	1.648196	-0.000195
 895	8.8953e+01	2.1908	63.744355	0.000993	9.932043	1.682534	-0.000199
 896	8.9052e+01	2.1708	63.526349	0.001095	10.945517	1.854221	-0.000219
 897	8.9152e+01	2.1514	63.372938	0.000770	7.702401	1.304822	-0.000154
 898	8.9251e+01	2.1304	63.118599	0.001277	12.769770	2.163258	-0.000256
 899	8.9351e+01	2.1114	62.940965	0.000892	8.918569	1.510847	-0.000179
 900	8.9451e+01	2.0904	62.751219	0.000953	9.526654	1.613859	-0.000191
 901	8.9550e+01	2.0711	62.557437	0.000973	9.729348	1.648196	-0.000195
 902	8.9650e+01	2.0506	62.343469	0.001074	10.742822	1.819883	-0.000215
 903	8.9749e+01	2.0311	62.173909	0.000851	8.513180	1.442172	-0.000170
 904	8.9849e+01	2.0110	61.931681	0.001216	12.161685	2.060245	-0.000243
 905	8.9948e+01	1.9916	61.741935	0.000953	9.526654	1.613859	-0.000191
 906	9.0047e+01	1.9712	61.523930	0.001095	10.945517	1.854221	-0.000219
 907	9.0147e+01	1.9518	61.322073	0.001013	10.134738	1.716871	-0.000203
 908	9.0246e+01	1.9311	61.124254	0.000993	9.932043	1.682534	-0.000199
 909	9.0346e+01	1.9125	60.954694	0.000851	8.513180	1.442172	-0.000170
 910	9.0445e+01	1.8919	60.736689	0.001095	10.945517	1.854221	-0.000219
 911	9.0545e+01	1.8716	60.490423	0.001236	12.364380	2.094583	-0.000248
 912	9.0644e+01	1.8523	60.272418	0.001095	10.945517	1.854221	-0.000219
 913	9.0744e+01	1.8320	60.110933	0.000811	8.107790	1.373497	-0.000162
 914	9.0844e+01	1.8121	59.901002	0.001054	10.540127	1.785546	-0.000211
 915	9.0943e+01	1.7916	59.674922	0.001135	11.350906	1.922896	-0.000227
 916	9.1043e+01	1.7725	59.440768	0.001176	11.756296	1.991570	-0.000235
 917	9.1142e+01	1.7525	59.283320	0.000791	7.905095	1.339159	-0.000158
 918	9.1242e+01	1.7330	59.085500	0.000993	9.932043	1.682534	-0.000199
 919	9.1341e+01	1.7123	58.887680	0.000993	9.932043	1.682534	-0.000199
 920	9.1441e+01	1.6923	58.649489	0.001196	11.958991	2.025908	-0.000239
 921	9.1540e+01	1.6731	58.459744	0.000953	9.526654	1.613859	-0.000191
 922	9.1639e+01	1.6516	58.221553	0.001196	11.958991	2.025908	-0.000239
 923	9.1739e+01	1.6326	58.011622	0.001054	10.540127	1.785546	-0.000211
 924	9.1838e+01	1.6124	57.805728	0.001034	10.337433	1.751208	-0.000207
 925	9.1938e+01	1.5925	57.636168	0.000851	8.513180	1.442172	-0.000170
 926	9.2037e+01	1.5737	57.438349	0.000993	9.932043	1.682534	-0.000199
 927	9.2137e+01	1.5530	57.188046	0.001257	12.567075	2.128920	-0.000252
 928	9.2237e+01	1.5331	56.978115	0.001054	10.540127	1.785546	-0.000211
 929	9.2336e+01	1.5131	56.760110	0.001095	10.945517	1.854221	-0.000219
 930	9.2436e+01	1.4928	56.582476	0.000892	8.918569	1.510847	-0.000179
 931	9.2535e+01	1.4729	56.332174	0.001257	12.567075	2.128920	-0.000252
 932	9.2635e+01	1.4530	56.170688	0.000811	8.107790	1.373497	-0.000162
 933	9.2734e+01	1.4332	55.936534	0.001176	11.756296	1.991570	-0.000235
 934	9.2834e+01	1.4130	55.771012	0.000831	8.310485	1.407834	-0.000166
 935	9.2933e+01	1.3938	55.520709	0.001257	12.567075	2.128920	-0.000252
 936	9.3032e+01	1.3736	55.302704	0.001095	10.945517	1.854221	-0.000219
 937	9.3132e+01	1.3534	55.092773	0.001054	10.540127	1.785546	-0.000211
 938	9.3231e+01	1.3336	54.903027	0.000953	9.526654	1.613859	-0.000191
 939	9.3331e+01	1.3128	54.636577	0.001338	13.377854	2.266270	-0.000268
 940	9.3430e+01	1.2941	54.467017	0.000851	8.513180	1.442172	-0.000170
 941	9.3530e+01	1.2735	54.257086	0.001054	10.540127	1.785546	-0.000211
 942	9.3629e+01	1.2542	54.063303	0.000973	9.729348	1.648196	-0.000195
 943	9.3729e+01	1.2338	53.837224	0.001135	11.350906	1.922896	-0.000227
 944	9.3829e+01	1.2143	53.631330	0.001034	10.337433	1.751208	-0.000207
 945	9.3928e+01	1.1948	53.421399	0.001054	10.540127	1.785546	-0.000211
 946	9.4028e+01	1.1740	53.195319	0.001135	11.350906	1.922896	-0.000227
 947	9.4127e+01	1.1550	53.017685	0.000892	8.918569	1.510847	-0.000179
 948	9.4227e+01	1.1344	52.775457	0.001216	12.161685	2.060245	-0.000243
 949	9.4326e+01	1.1158	52.561489	0.001074	10.742822	1.819883	-0.000215
 950	9.4425e+01	1.0953	52.391929	0.000851	8.513180	1.442172	-0.000170
 951	9.4525e+01	1.0767	52.133552	0.001297	12.972464	2.197595	-0.000260
 952	9.4624e+01	1.0553	51.943807	0.000953	9.526654	1.613859	-0.000191
 953	9.4724e+01	1.0352	51.721765	0.001115	11.148212	1.888558	-0.000223
 954	9.4823e+01	1.0149	51.536056	0.000932	9.323959	1.579521	-0.000187
 955	9.4923e+01	0.9949	51.273642	0.001318	13.175159	2.231932	-0.000264
 956	9.5022e+01	0.9754	51.079860	0.000973	9.729348	1.648196	-0.000195
 957	9.5122e+01	0.9566	50.869929	0.001054	10.540127	1.785546	-0.000211
 958	9.5222e+01	0.9361	50.659998	0.001054	10.540127	1.785546	-0.000211
 959	9.5321e+01	0.9159	50.450067	0.001054	10.540127	1.785546	-0.000211
 960	9.5421e+01	0.8963	50.232061	0.001095	10.945517	1.854221	-0.000219
 961	9.5520e+01	0.8766	50.022130	0.001054	10.540127	1.785546	-0.000211
 962	9.5620e+01	0.8561	49.767791	0.001277	12.769770	2.163258	-0.000256
 963	9.5719e+01	0.8360	49.606305	0.000811	8.107790	1.373497	-0.000162
 964	9.5819e+01	0.8161	49.368114	0.001196	11.958991	2.025908	-0.000239
 965	9.5918e+01	0.7958	49.166258	0.001013	10.134738	1.716871	-0.000203
 966	9.6017e+01	0.7769	48.940178	0.001135	11.350906	1.922896	-0.000227
 967	9.6117e+01	0.7564	48.774655	0.000831	8.310485	1.407834	-0.000166
 968	9.6216e+01	0.7361	48.528390	0.001236	12.364380	2.094583	-0.000248
 969	9.6316e+01	0.7162	48.302311	0.001135	11.350906	1.922896	-0.000227
 970	9.6415e+01	0.6965	48.064120	0.001196	11.958991	2.025908	-0.000239
 971	9.6515e+01	0.6769	47.866300	0.000993	9.932043	1.682534	-0.000199
 972	9.6615e+01	0.6570	47.640220	0.001135	11.350906	1.922896	-0.000227
 973	9.6714e+01	0.6365	47.466623	0.000872	8.715875	1.476509	-0.000174
 974	9.6814e+01	0.6165	47.228432	0.001196	11.958991	2.025908	-0.000239
 975	9.6913e+01	0.5966	47.006390	0.001115	11.148212	1.888558	-0.000223
 976	9.7013e+01	0.5774	46.772236	0.001176	11.756296	1.991570	-0.000235
 977	9.7112e+01	0.5576	46.542119	0.001155	11.553601	1.957233	-0.000231
 978	9.7212e+01	0.5372	46.320077	0.001115	11.148212	1.888558	-0.000223
 979	9.7311e+01	0.5169	46.118220	0.001013	10.134738	1.716871	-0.000203
 980	9.7410e+01	0.4963	45.924438	0.000973	9.729348	1.648196	-0.000195
 981	9.7510e+01	0.4786	45.682209	0.001216	12.161685	2.060245	-0.000243
 982	9.7609e+01	0.4571	45.476316	0.001034	10.337433	1.751208	-0.000207
 983	9.7709e+01	0.4378	45.270422	0.001034	10.337433	1.751208	-0.000207
 984	9.7808e+01	0.4182	45.003971	0.001338	13.377854	2.266270	-0.000268
 985	9.7908e+01	0.3974	44.773854	0.001155	11.553601	1.957233	-0.000231
 986	9.8007e+01	0.3773	44.580071	0.000973	9.729348	1.648196	-0.000195
 987	9.8107e+01	0.3571	44.370140	0.001054	10.540127	1.785546	-0.000211
 988	9.8207e+01	0.3392	44.131949	0.001196	11.958991	2.025908	-0.000239
 989	9.8306e+01	0.3179	43.946241	0.000932	9.323959	1.579521	-0.000187
 990	9.8406e+01	0.2988	43.695939	0.001257	12.567075	2.128920	-0.000252
 991	9.8505e+01	0.2778	43.481970	0.001074	10.742822	1.819883	-0.000215
 992	9.8605e+01	0.2581	43.276077	0.001034	10.337433	1.751208	-0.000207
 993	9.8704e+01	0.2387	43.041923	0.001176	11.756296	1.991570	-0.000235
 994	9.8803e+01	0.2189	42.831992	0.001054	10.540127	1.785546	-0.000211
 995	9.8903e+01	0.1979	42.618023	0.001074	10.742822	1.819883	-0.000215
 996	9.9002e+01	0.1781	42.391944	0.001135	11.350906	1.922896	-0.000227
 997	9.9102e+01	0.1583	42.198161	0.000973	9.729348	1.648196	-0.000195
 998	9.9201e+01	0.1386	41.972082	0.001135	11.350906	1.922896	-0.000227
 999	9.9301e+01	0.1179	41.741965	0.001155	11.553601	1.957233	-0.000231
1000	9.9400e+01	0.0977	41.523960	0.001095	10.945517	1.854221	-0.000219
1001	9.9500e+01	0.0799	41.297880	0.001135	11.350906	1.922896	-0.000227
1002	9.9600e+01	0.0586	41.104098	0.000973	9.729348	1.648196	-0.000195
1003	9.9699e+01	0.0386	40.849758	0.001277	12.769770	2.163258	-0.000256
1004	9.9799e+01	0.0187	40.643864	0.001034	10.337433	1.751208	-0.000207
1005	9.9898e+01	-0.0001	40.405673	0.001196	11.958991	2.025908	-0.000239
1006	9.9998e+01	-0.0188	40.203816	0.001013	10.134738	1.716871	-0.000203
1007	1.0010e+02	-0.0371	40.014071	0.000953	9.526654	1.613859	-0.000191
1008	1.0020e+02	-0.0592	39.844511	0.000851	8.513180	1.442172	-0.000170
1009	1.0030e+02	-0.0781	39.549800	0.001480	14.796717	2.506632	-0.000296
1010	1.0040e+02	-0.1000	39.364092	0.000932	9.323959	1.579521	-0.000187
1011	1.0050e+02	-0.1182	39.146087	0.001095	10.945517	1.854221	-0.000219
1012	1.0059e+02	-0.1386	38.887710	0.001297	12.972464	2.197595	-0.000260
1013	1.0069e+02	-0.1595	38.685853	0.001013	10.134738	1.716871	-0.000203
1014	1.0079e+02	-0.1793	38.463811	0.001115	11.148212	1.888558	-0.000223
1015	1.0089e+02	-0.1981	38.229657	0.001176	11.756296	1.991570	-0.000235
1016	1.0099e+02	-0.2189	38.023763	0.001034	10.337433	1.751208	-0.000207
1017	1.0109e+02	-0.2384	37.813832	0.001054	10.540127	1.785546	-0.000211
1018	1.0119e+02	-0.2581	37.543344	0.001358	13.580549	2.300607	-0.000272
1019	1.0129e+02	-0.2788	37.369747	0.000872	8.715875	1.476509	-0.000174
1020	1.0139e+02	-0.2979	37.123482	0.001236	12.364380	2.094583	-0.000248
1021	1.0149e+02	-0.3172	36.909513	0.001074	10.742822	1.819883	-0.000215
1022	1.0159e+02	-0.3377	36.679397	0.001155	11.553601	1.957233	-0.000231
1023	1.0169e+02	-0.3579	36.461391	0.001095	10.945517	1.854221	-0.000219
1024	1.0179e+02	-0.3777	36.243386	0.001095	10.945517	1.854221	-0.000219
1025	1.0189e+02	-0.3977	35.997121	0.001236	12.364380	2.094583	-0.000248
1026	1.0199e+02	-0.4184	35.831598	0.000831	8.310485	1.407834	-0.000166
1027	1.0209e+02	-0.4371	35.609556	0.001115	11.148212	1.888558	-0.000223
1028	1.0219e+02	-0.4576	35.367328	0.001216	12.161685	2.060245	-0.000243
1029	1.0229e+02	-0.4781	35.141248	0.001135	11.350906	1.922896	-0.000227
1030	1.0239e+02	-0.4964	34.907094	0.001176	11.756296	1.991570	-0.000235
1031	1.0248e+02	-0.5171	34.676977	0.001155	11.553601	1.957233	-0.000231
1032	1.0258e+02	-0.5363	34.446861	0.001155	11.553601	1.957233	-0.000231
1033	1.0268e+02	-0.5573	34.228855	0.001095	10.945517	1.854221	-0.000219
1034	1.0278e+02	-0.5785	34.010850	0.001095	10.945517	1.854221	-0.000219
1035	1.0288e+02	-0.5969	33.776696	0.001176	11.756296	1.991570	-0.000235
1036	1.0298e+02	-0.6171	33.570802	0.001034	10.337433	1.751208	-0.000207
1037	1.0308e+02	-0.6368	33.320500	0.001257	12.567075	2.128920	-0.000252
1038	1.0318e+02	-0.6573	33.098457	0.001115	11.148212	1.888558	-0.000223
1039	1.0328e+02	-0.6775	32.868341	0.001155	11.553601	1.957233	-0.000231
1040	1.0338e+02	-0.6969	32.618038	0.001257	12.567075	2.128920	-0.000252
1041	1.0348e+02	-0.7166	32.432330	0.000932	9.323959	1.579521	-0.000187
1042	1.0358e+02	-0.7358	32.206250	0.001135	11.350906	1.922896	-0.000227
1043	1.0368e+02	-0.7561	31.951911	0.001277	12.769770	2.163258	-0.000256
1044	1.0378e+02	-0.7764	31.754091	0.000993	9.932043	1.682534	-0.000199
1045	1.0388e+02	-0.7965	31.507826	0.001236	12.364380	2.094583	-0.000248
1046	1.0398e+02	-0.8165	31.297895	0.001054	10.540127	1.785546	-0.000211
1047	1.0408e+02	-0.8364	31.067778	0.001155	11.553601	1.957233	-0.000231
1048	1.0418e+02	-0.8562	30.825550	0.001216	12.161685	2.060245	-0.000243
1049	1.0428e+02	-0.8762	30.635805	0.000953	9.526654	1.613859	-0.000191
1050	1.0438e+02	-0.8958	30.393576	0.001216	12.161685	2.060245	-0.000243
1051	1.0447e+02	-0.9162	30.163460	0.001155	11.553601	1.957233	-0.000231
1052	1.0457e+02	-0.9358	29.905083	0.001297	12.972464	2.197595	-0.000260
1053	1.0467e+02	-0.9555	29.711300	0.000973	9.729348	1.648196	-0.000195
1054	1.0477e+02	-0.9757	29.465035	0.001236	12.364380	2.094583	-0.000248
1055	1.0487e+02	-0.9959	29.279327	0.000932	9.323959	1.579521	-0.000187
1056	1.0497e+02	-1.0147	29.045173	0.001176	11.756296	1.991570	-0.000235
1057	1.0507e+02	-1.0351	28.823131	0.001115	11.148212	1.888558	-0.000223
1058	1.0517e+02	-1.0552	28.597051	0.001135	11.350906	1.922896	-0.000227
1059	1.0527e+02	-1.0764	28.358860	0.001196	11.958991	2.025908	-0.000239
1060	1.0537e+02	-1.0948	28.136818	0.001115	11.148212	1.888558	-0.000223
1061	1.0547e+02	-1.1157	27.902664	0.001176	11.756296	1.991570	-0.000235
1062	1.0557e+02	-1.1353	27.688695	0.001074	10.742822	1.819883	-0.000215
1063	1.0567e+02	-1.1547	27.466653	0.001115	11.148212	1.888558	-0.000223
1064	1.0577e+02	-1.1757	27.232499	0.001176	11.756296	1.991570	-0.000235
1065	1.0587e+02	-1.1944	26.978160	0.001277	12.769770	2.163258	-0.000256
1066	1.0597e+02	-1.2146	26.752080	0.001135	11.350906	1.922896	-0.000227
1067	1.0607e+02	-1.2339	26.534075	0.001095	10.945517	1.854221	-0.000219
1068	1.0617e+02	-1.2537	26.340292	0.000973	9.729348	1.648196	-0.000195
1069	1.0627e+02	-1.2743	26.094027	0.001236	12.364380	2.094583	-0.000248
1070	1.0637e+02	-1.2943	25.896207	0.000993	9.932043	1.682534	-0.000199
1071	1.0647e+02	-1.3144	25.678202	0.001095	10.945517	1.854221	-0.000219
1072	1.0656e+02	-1.3339	25.440011	0.001196	11.958991	2.025908	-0.000239
1073	1.0666e+02	-1.3541	25.201820	0.001196	11.958991	2.025908	-0.000239
1074	1.0676e+02	-1.3730	24.975740	0.001135	11.350906	1.922896	-0.000227
1075	1.0686e+02	-1.3940	24.753698	0.001115	11.148212	1.888558	-0.000223
1076	1.0696e+02	-1.4131	24.527618	0.001135	11.350906	1.922896	-0.000227
1077	1.0706e+02	-1.4335	24.277316	0.001257	12.567075	2.128920	-0.000252
1078	1.0716e+02	-1.4542	24.047199	0.001155	11.553601	1.957233	-0.000231
1079	1.0726e+02	-1.4722	23.841305	0.001034	10.337433	1.751208	-0.000207
1080	1.0736e+02	-1.4937	23.582928	0.001297	12.972464	2.197595	-0.000260
1081	1.0746e+02	-1.5131	23.372997	0.001054	10.540127	1.785546	-0.000211
1082	1.0756e+02	-1.5331	23.142881	0.001155	11.553601	1.957233	-0.000231
1083	1.0766e+02	-1.5534	22.892578	0.001257	12.567075	2.128920	-0.000252
1084	1.0776e+02	-1.5735	22.682647	0.001054	10.540127	1.785546	-0.000211
1085	1.0786e+02	-1.5929	22.464642	0.001095	10.945517	1.854221	-0.000219
1086	1.0796e+02	-1.6121	22.198191	0.001338	13.377854	2.266270	-0.000268
1087	1.0806e+02	-1.6352	21.955963	0.001216	12.161685	2.060245	-0.000243
1088	1.0816e+02	-1.6533	21.770254	0.000932	9.323959	1.579521	-0.000187
1089	1.0826e+02	-1.6733	21.487655	0.001419	14.188633	2.403619	-0.000284
1090	1.0836e+02	-1.6934	21.289835	0.000993	9.932043	1.682534	-0.000199
1091	1.0845e+02	-1.7130	21.047607	0.001216	12.161685	2.060245	-0.000243
1092	1.0855e+02	-1.7334	20.797305	0.001257	12.567075	2.128920	-0.000252
1093	1.0865e+02	-1.7532	20.599485	0.000993	9.932043	1.682534	-0.000199
1094	1.0875e+02	-1.7726	20.385517	0.001074	10.742822	1.819883	-0.000215
1095	1.0885e+02	-1.7931	20.167512	0.001095	10.945517	1.854221	-0.000219
1096	1.0895e+02	-1.8121	19.888949	0.001399	13.985938	2.369282	-0.000280
1097	1.0905e+02	-1.8322	19.670944	0.001095	10.945517	1.854221	-0.000219
1098	1.0915e+02	-1.8518	19.412567	0.001297	12.972464	2.197595	-0.000260
1099	1.0925e+02	-1.8715	19.222822	0.000953	9.526654	1.613859	-0.000191
1100	1.0935e+02	-1.8916	18.984631	0.001196	11.958991	2.025908	-0.000239
1101	1.0945e+02	-1.9125	18.770663	0.001074	10.742822	1.819883	-0.000215
1102	1.0955e+02	-1.9311	18.524397	0.001236	12.364380	2.094583	-0.000248
1103	1.0965e+02	-1.9520	18.298318	0.001135	11.350906	1.922896	-0.000227
1104	1.0975e+02	-1.9714	18.076275	0.001115	11.148212	1.888558	-0.000223
1105	1.0985e+02	-1.9918	17.890567	0.000932	9.323959	1.579521	-0.000187
1106	1.0995e+02	-2.0117	17.644302	0.001236	12.364380	2.094583	-0.000248
1107	1.1005e+02	-2.0318	17.406111	0.001196	11.958991	2.025908	-0.000239
1108	1.1015e+02	-2.0519	17.192143	0.001074	10.742822	1.819883	-0.000215
1109	1.1025e+02	-2.0718	16.925692	0.001338	13.377854	2.266270	-0.000268
1110	1.1035e+02	-2.0914	16.707686	0.001095	10.945517	1.854221	-0.000219
1111	1.1044e+02	-2.1117	16.457384	0.001257	12.567075	2.128920	-0.000252
1112	1.1054e+02	-2.1306	16.235341	0.001115	11.148212	1.888558	-0.000223
1113	1.1064e+02	-2.1515	16.037522	0.000993	9.932043	1.682534	-0.000199
1114	1.1074e+02	-2.1713	15.815479	0.001115	11.148212	1.888558	-0.000223
1115	1.1084e+02	-2.1909	15.573251	0.001216	12.161685	2.060245	-0.000243
1116	1.1094e+02	-2.2105	15.375431	0.000993	9.932043	1.682534	-0.000199
1117	1.1104e+02	-2.2302	15.129166	0.001236	12.364380	2.094583	-0.000248
1118	1.1114e+02	-2.2513	14.903087	0.001135	11.350906	1.922896	-0.000227
1119	1.1124e+02	-2.2707	14.640673	0.001318	13.175159	2.231932	-0.000264
1120	1.1134e+02	-2.2882	14.422667	0.001095	10.945517	1.854221	-0.000219
1121	1.1144e+02	-2.3097	14.253108	0.000851	8.513180	1.442172	-0.000170
1122	1.1154e+02	-2.3306	13.990694	0.001318	13.175159	2.231932	-0.000264
1123	1.1164e+02	-2.3500	13.720206	0.001358	13.580549	2.300607	-0.000272
1124	1.1174e+02	-2.3695	13.530460	0.000953	9.526654	1.613859	-0.000191
1125	1.1184e+02	-2.3906	13.280158	0.001257	12.567075	2.128920	-0.000252
1126	1.1194e+02	-2.4102	13.062153	0.001095	10.945517	1.854221	-0.000219
1127	1.1204e+02	-2.4305	12.819925	0.001216	12.161685	2.060245	-0.000243
1128	1.1214e+02	-2.4506	12.626142	0.000973	9.729348	1.648196	-0.000195
1129	1.1224e+02	-2.4704	12.387951	0.001196	11.958991	2.025908	-0.000239
1130	1.1234e+02	-2.4902	12.178020	0.001054	10.540127	1.785546	-0.000211
1131	1.1244e+02	-2.5094	11.927718	0.001257	12.567075	2.128920	-0.000252
1132	1.1253e+02	-2.5294	11.766232	0.000811	8.107790	1.373497	-0.000162
1133	1.1263e+02	-2.5491	11.495744	0.001358	13.580549	2.300607	-0.000272
1134	1.1273e+02	-2.5681	11.301961	0.000973	9.729348	1.648196	-0.000195
1135	1.1283e+02	-2.5891	11.079919	0.001115	11.148212	1.888558	-0.000223
1136	1.1293e+02	-2.6091	10.817505	0.001318	13.175159	2.231932	-0.000264
1137	1.1303e+02	-2.6289	10.603537	0.001074	10.742822	1.819883	-0.000215
1138	1.1313e+02	-2.6488	10.365346	0.001196	11.958991	2.025908	-0.000239
1139	1.1323e+02	-2.6678	10.135229	0.001155	11.553601	1.957233	-0.000231
1140	1.1333e+02	-2.6887	9.921261	0.001074	10.742822	1.819883	-0.000215
1141	1.1343e+02	-2.7081	9.666922	0.001277	12.769770	2.163258	-0.000256
1142	1.1353e+02	-2.7278	9.465065	0.001013	10.134738	1.716871	-0.000203
1143	1.1363e+02	-2.7481	9.230911	0.001176	11.756296	1.991570	-0.000235
1144	1.1373e+02	-2.7693	8.992720	0.001196	11.958991	2.025908	-0.000239
1145	1.1383e+02	-2.7876	8.815086	0.000892	8.918569	1.510847	-0.000179
1146	1.1393e+02	-2.8088	8.544598	0.001358	13.580549	2.300607	-0.000272
1147	1.1403e+02	-2.8283	8.342741	0.001013	10.134738	1.716871	-0.000203
1148	1.1413e+02	-2.8477	8.100513	0.001216	12.161685	2.060245	-0.000243
1149	1.1423e+02	-2.8677	7.902693	0.000993	9.932043	1.682534	-0.000199
1150	1.1433e+02	-2.8879	7.676614	0.001135	11.350906	1.922896	-0.000227
1151	1.1442e+02	-2.9077	7.434385	0.001216	12.161685	2.060245	-0.000243
1152	1.1452e+02	-2.9285	7.180046	0.001277	12.769770	2.163258	-0.000256
1153	1.1462e+02	-2.9469	6.974152	0.001034	10.337433	1.751208	-0.000207
1154	1.1472e+02	-2.9673	6.772295	0.001013	10.134738	1.716871	-0.000203
1155	1.1482e+02	-2.9868	6.513919	0.001297	12.972464	2.197595	-0.000260
1156	1.1492e+02	-3.0077	6.328210	0.000932	9.323959	1.579521	-0.000187
1157	1.1502e+02	-3.0267	6.106168	0.001115	11.148212	1.888558	-0.000223
1158	1.1512e+02	-3.0479	5.863940	0.001216	12.161685	2.060245	-0.000243
1159	1.1522e+02	-3.0668	5.658046	0.001034	10.337433	1.751208	-0.000207
1160	1.1532e+02	-3.0830	5.452152	0.001034	10.337433	1.751208	-0.000207
1161	1.1542e+02	-3.1078	5.217998	0.001176	11.756296	1.991570	-0.000235
1162	1.1552e+02	-3.1272	4.967696	0.001257	12.567075	2.128920	-0.000252
1163	1.1562e+02	-3.1477	4.769876	0.000993	9.932043	1.682534	-0.000199
1164	1.1572e+02	-3.1667	4.576093	0.000973	9.729348	1.648196	-0.000195
1165	1.1582e+02	-3.1860	4.378274	0.000993	9.932043	1.682534	-0.000199
1166	1.1592e+02	-3.2065	4.123934	0.001277	12.769770	2.163258	-0.000256
1167	1.1602e+02	-3.2272	3.914003	0.001054	10.540127	1.785546	-0.000211
1168	1.1612e+02	-3.2462	3.667738	0.001236	12.364380	2.094583	-0.000248
1169	1.1622e+02	-3.2662	3.490104	0.000892	8.918569	1.510847	-0.000179
1170	1.1632e+02	-3.2867	3.276136	0.001074	10.742822	1.819883	-0.000215
1171	1.1642e+02	-3.3064	3.041982	0.001176	11.756296	1.991570	-0.000235
1172	1.1651e+02	-3.3258	2.819939	0.001115	11.148212	1.888558	-0.000223
1173	1.1661e+02	-3.3466	2.597897	0.001115	11.148212	1.888558	-0.000223
1174	1.1671e+02	-3.3667	2.355669	0.001216	12.161685	2.060245	-0.000243
1175	1.1681e+02	-3.3859	2.202258	0.000770	7.702401	1.304822	-0.000154
1176	1.1691e+02	-3.4063	1.903510	0.001500	14.999412	2.540969	-0.000300
1177	1.1701e+02	-3.4258	1.693578	0.001054	10.540127	1.785546	-0.000211
1178	1.1711e+02	-3.4462	1.511907	0.000912	9.121264	1.545184	-0.000183
1179	1.1721e+02	-3.4657	1.269679	0.001216	12.161685	2.060245	-0.000243
1180	1.1731e+02	-3.4856	1.092045	0.000892	8.918569	1.510847	-0.000179
1181	1.1741e+02	-3.5046	0.890188	0.001013	10.134738	1.716871	-0.000203
1182	1.1751e+02	-3.5263	0.639886	0.001257	12.567075	2.128920	-0.000252
1183	1.1761e+02	-3.5458	0.433992	0.001034	10.337433	1.751208	-0.000207
1184	1.1771e+02	-3.5657	0.203875	0.001155	11.553601	1.957233	-0.000231
1185	1.1781e+02	-3.5851	-0.014130	0.001095	10.945517	1.854221	-0.000219
1186	1.1791e+02	-3.6105	-0.207912	0.000973	9.729348	1.648196	-0.000195
1187	1.1801e+02	-3.6254	-0.486475	0.001399	13.985938	2.369282	-0.000280
1188	1.1811e+02	-3.6446	-0.668146	0.000912	9.121264	1.545184	-0.000183
1189	1.1821e+02	-3.6661	-0.902300	0.001176	11.756296	1.991570	-0.000235
1190	1.1831e+02	-3.6852	-1.096082	0.000973	9.729348	1.648196	-0.000195
1191	1.1841e+02	-3.7061	-1.310051	0.001074	10.742822	1.819883	-0.000215
1192	1.1850e+02	-3.7251	-1.495759	0.000932	9.323959	1.579521	-0.000187
1193	1.1860e+02	-3.7455	-1.737987	0.001216	12.161685	2.060245	-0.000243
1194	1.1870e+02	-3.7656	-1.972141	0.001176	11.756296	1.991570	-0.000235
1195	1.1880e+02	-3.7851	-2.194183	0.001115	11.148212	1.888558	-0.000223
1196	1.1890e+02	-3.8042	-2.375854	0.000912	9.121264	1.545184	-0.000183
1197	1.1900e+02	-3.8247	-2.585785	0.001054	10.540127	1.785546	-0.000211
1198	1.1910e+02	-3.8445	-2.803791	0.001095	10.945517	1.854221	-0.000219
1199	1.1920e+02	-3.8636	-3.050056	0.001236	12.364380	2.094583	-0.000248
1200	1.1930e+02	-3.8836	-3.251913	0.001013	10.134738	1.716871	-0.000203
1201	1.1940e+02	-3.9037	-3.490104	0.001196	11.958991	2.025908	-0.000239
1202	1.1950e+02	-3.9240	-3.695998	0.001034	10.337433	1.751208	-0.000207
1203	1.1960e+02	-3.9426	-3.914003	0.001095	10.945517	1.854221	-0.000219
1204	1.1970e+02	-3.9639	-4.099711	0.000932	9.323959	1.579521	-0.000187
1205	1.1980e+02	-3.9838	-4.333865	0.001176	11.756296	1.991570	-0.000235
1206	1.1990e+02	-4.0026	-4.580130	0.001236	12.364380	2.094583	-0.000248
1207	1.2000e+02	-4.0234	-4.749690	0.000851	8.513180	1.442172	-0.000170
1208	1.2010e+02	-4.0433	-4.991918	0.001216	12.161685	2.060245	-0.000243
1209	1.2020e+02	-4.0637	-5.201849	0.001054	10.540127	1.785546	-0.000211
1210	1.2030e+02	-4.0835	-5.391595	0.000953	9.526654	1.613859	-0.000191
1211	1.2039e+02	-4.1032	-5.645934	0.001277	12.769770	2.163258	-0.000256
1212	1.2049e+02	-4.1232	-5.851828	0.001034	10.337433	1.751208	-0.000207
1213	1.2059e+02	-4.1432	-6.061759	0.001054	10.540127	1.785546	-0.000211
1214	1.2069e+02	-4.1636	-6.283802	0.001115	11.148212	1.888558	-0.000223
1215	1.2079e+02	-4.1827	-6.497770	0.001074	10.742822	1.819883	-0.000215
1216	1.2089e+02	-4.2027	-6.703664	0.001034	10.337433	1.751208	-0.000207
1217	1.2099e+02	-4.2226	-6.929743	0.001135	11.350906	1.922896	-0.000227
1218	1.2109e+02	-4.2426	-7.155823	0.001135	11.350906	1.922896	-0.000227
1219	1.2119e+02	-4.2636	-7.357680	0.001013	10.134738	1.716871	-0.000203
1220	1.2129e+02	-4.2829	-7.563574	0.001034	10.337433	1.751208	-0.000207
1221	1.2139e+02	-4.3033	-7.801765	0.001196	11.958991	2.025908	-0.000239
1222	1.2149e+02	-4.3236	-8.007659	0.001034	10.337433	1.751208	-0.000207
1223	1.2159e+02	-4.3431	-8.221627	0.001074	10.742822	1.819883	-0.000215
1224	1.2169e+02	-4.3619	-8.455781	0.001176	11.756296	1.991570	-0.000235
1225	1.2179e+02	-4.3826	-8.657638	0.001013	10.134738	1.716871	-0.000203
1226	1.2189e+02	-4.4022	-8.879680	0.001115	11.148212	1.888558	-0.000223
1227	1.2199e+02	-4.4220	-9.033091	0.000770	7.702401	1.304822	-0.000154
1228	1.2209e+02	-4.4424	-9.271282	0.001196	11.958991	2.025908	-0.000239
1229	1.2219e+02	-4.4615	-9.497362	0.001135	11.350906	1.922896	-0.000227
1230	1.2229e+02	-4.4815	-9.735553	0.001196	11.958991	2.025908	-0.000239
1231	1.2239e+02	-4.5020	-9.941447	0.001034	10.337433	1.751208	-0.000207
1232	1.2248e+02	-4.5222	-10.127155	0.000932	9.323959	1.579521	-0.000187
1233	1.2258e+02	-4.5419	-10.377457	0.001257	12.567075	2.128920	-0.000252
1234	1.2268e+02	-4.5624	-10.555091	0.000892	8.918569	1.510847	-0.000179
1235	1.2278e+02	-4.5813	-10.825579	0.001358	13.580549	2.300607	-0.000272
1236	1.2288e+02	-4.6011	-11.003213	0.000892	8.918569	1.510847	-0.000179
1237	1.2298e+02	-4.6214	-11.201033	0.000993	9.932043	1.682534	-0.000199
1238	1.2308e+02	-4.6417	-11.463447	0.001318	13.175159	2.231932	-0.000264
1239	1.2318e+02	-4.6616	-11.701638	0.001196	11.958991	2.025908	-0.000239
1240	1.2328e+02	-4.6799	-11.895420	0.000973	9.729348	1.648196	-0.000195
1241	1.2338e+02	-4.7012	-12.097277	0.001013	10.134738	1.716871	-0.000203
1242	1.2348e+02	-4.7207	-12.315283	0.001095	10.945517	1.854221	-0.000219
1243	1.2358e+02	-4.7398	-12.533288	0.001095	10.945517	1.854221	-0.000219
1244	1.2368e+02	-4.7604	-12.759368	0.001135	11.350906	1.922896	-0.000227
1245	1.2378e+02	-4.7801	-12.981410	0.001115	11.148212	1.888558	-0.000223
1246	1.2388e+02	-4.8009	-13.203452	0.001115	11.148212	1.888558	-0.000223
1247	1.2398e+02	-4.8209	-13.441643	0.001196	11.958991	2.025908	-0.000239
1248	1.2408e+02	-4.8405	-13.631389	0.000953	9.526654	1.613859	-0.000191
1249	1.2418e+02	-4.8604	-13.837283	0.001034	10.337433	1.751208	-0.000207
1250	1.2428e+02	-4.8807	-14.031065	0.000973	9.729348	1.648196	-0.000195
1251	1.2438e+02	-4.9005	-14.305590	0.001378	13.783243	2.334945	-0.000276
1252	1.2447e+02	-4.9203	-14.495336	0.000953	9.526654	1.613859	-0.000191
1253	1.2457e+02	-4.9403	-14.745638	0.001257	12.567075	2.128920	-0.000252
1254	1.2467e+02	-4.9603	-14.947495	0.001013	10.134738	1.716871	-0.000203
1255	1.2477e+02	-4.9796	-15.145315	0.000993	9.932043	1.682534	-0.000199
1256	1.2487e+02	-4.9998	-15.391580	0.001236	12.364380	2.094583	-0.000248
1257	1.2497e+02	-5.0205	-15.633808	0.001216	12.161685	2.060245	-0.000243
1258	1.2507e+02	-5.0400	-15.859888	0.001135	11.350906	1.922896	-0.000227
1259	1.2517e+02	-5.0593	-16.081930	0.001115	11.148212	1.888558	-0.000223
1260	1.2527e+02	-5.0797	-16.279750	0.000993	9.932043	1.682534	-0.000199
1261	1.2537e+02	-5.0995	-16.505829	0.001135	11.350906	1.922896	-0.000227
1262	1.2547e+02	-5.1193	-16.727872	0.001115	11.148212	1.888558	-0.000223
1263	1.2557e+02	-5.1399	-16.970100	0.001216	12.161685	2.060245	-0.000243
1264	1.2567e+02	-5.1587	-17.163883	0.000973	9.729348	1.648196	-0.000195
1265	1.2577e+02	-5.1784	-17.385925	0.001115	11.148212	1.888558	-0.000223
1266	1.2587e+02	-5.1992	-17.644302	0.001297	12.972464	2.197595	-0.000260
1267	1.2597e+02	-5.2182	-17.842121	0.000993	9.932043	1.682534	-0.000199
1268	1.2607e+02	-5.2394	-18.060127	0.001095	10.945517	1.854221	-0.000219
1269	1.2617e+02	-5.2594	-18.261984	0.001013	10.134738	1.716871	-0.000203
1270	1.2627e+02	-5.2785	-18.496137	0.001176	11.756296	1.991570	-0.000235
1271	1.2636e+02	-5.2985	-18.730291	0.001176	11.756296	1.991570	-0.000235
1272	1.2646e+02	-5.3189	-18.952334	0.001115	11.148212	1.888558	-0.000223
1273	1.2656e+02	-5.3383	-19.170339	0.001095	10.945517	1.854221	-0.000219
1274	1.2666e+02	-5.3583	-19.372196	0.001013	10.134738	1.716871	-0.000203
1275	1.2676e+02	-5.3780	-19.602313	0.001155	11.553601	1.957233	-0.000231
1276	1.2686e+02	-5.3979	-19.828392	0.001135	11.350906	1.922896	-0.000227
1277	1.2696e+02	-5.4175	-20.078695	0.001257	12.567075	2.128920	-0.000252
1278	1.2706e+02	-5.4382	-20.272477	0.000973	9.729348	1.648196	-0.000195
1279	1.2716e+02	-5.4579	-20.490482	0.001095	10.945517	1.854221	-0.000219
1280	1.2726e+02	-5.4784	-20.732711	0.001216	12.161685	2.060245	-0.000243
1281	1.2736e+02	-5.4976	-20.978976	0.001236	12.364380	2.094583	-0.000248
1282	1.2746e+02	-5.5178	-21.201018	0.001115	11.148212	1.888558	-0.000223
1283	1.2756e+02	-5.5380	-21.435172	0.001176	11.756296	1.991570	-0.000235
1284	1.2766e+02	-5.5577	-21.673363	0.001196	11.958991	2.025908	-0.000239
1285	1.2776e+02	-5.5777	-21.895406	0.001115	11.148212	1.888558	-0.000223
1286	1.2786e+02	-5.5980	-22.153782	0.001297	12.972464	2.197595	-0.000260
1287	1.2796e+02	-5.6180	-22.351602	0.000993	9.932043	1.682534	-0.000199
1288	1.2806e+02	-5.6375	-22.638239	0.001439	14.391328	2.437957	-0.000288
1289	1.2816e+02	-5.6572	-22.803761	0.000831	8.310485	1.407834	-0.000166
1290	1.2826e+02	-5.6778	-23.050026	0.001236	12.364380	2.094583	-0.000248
1291	1.2835e+02	-5.6968	-23.300329	0.001257	12.567075	2.128920	-0.000252
1292	1.2845e+02	-5.7173	-23.554668	0.001277	12.769770	2.163258	-0.000256
1293	1.2855e+02	-5.7368	-23.752488	0.000993	9.932043	1.682534	-0.000199
1294	1.2865e+02	-5.7565	-23.970493	0.001095	10.945517	1.854221	-0.000219
1295	1.2875e+02	-5.7764	-24.216759	0.001236	12.364380	2.094583	-0.000248
1296	1.2885e+02	-5.7961	-24.434764	0.001095	10.945517	1.854221	-0.000219
1297	1.2895e+02	-5.8173	-24.668918	0.001176	11.756296	1.991570	-0.000235
1298	1.2905e+02	-5.8368	-24.939406	0.001358	13.580549	2.300607	-0.000272
1299	1.2915e+02	-5.8572	-25.161448	0.001115	11.148212	1.888558	-0.000223
1300	1.2925e+02	-5.8759	-25.375417	0.001074	10.742822	1.819883	-0.000215
1301	1.2935e+02	-5.8966	-25.641868	0.001338	13.377854	2.266270	-0.000268
1302	1.2945e+02	-5.9167	-25.859873	0.001095	10.945517	1.854221	-0.000219
1303	1.2955e+02	-5.9351	-26.110175	0.001257	12.567075	2.128920	-0.000252
1304	1.2965e+02	-5.9561	-26.344329	0.001176	11.756296	1.991570	-0.000235
1305	1.2975e+02	-5.9758	-26.554260	0.001054	10.540127	1.785546	-0.000211
1306	1.2985e+02	-5.9958	-26.832823	0.001399	13.985938	2.369282	-0.000280
1307	1.2995e+02	-6.0153	-27.058902	0.001135	11.350906	1.922896	-0.000227
1308	1.3005e+02	-6.0353	-27.345539	0.001439	14.391328	2.437957	-0.000288
1309	1.3015e+02	-6.0550	-27.579693	0.001176	11.756296	1.991570	-0.000235
1310	1.3025e+02	-6.0754	-27.793661	0.001074	10.742822	1.819883	-0.000215
1311	1.3034e+02	-6.0957	-28.031852	0.001196	11.958991	2.025908	-0.000239
1312	1.3044e+02	-6.1156	-28.342711	0.001561	15.607496	2.643981	-0.000312
1313	1.3054e+02	-6.1353	-28.597051	0.001277	12.769770	2.163258	-0.000256
1314	1.3064e+02	-6.1552	-28.762574	0.000831	8.310485	1.407834	-0.000166
1315	1.3074e+02	-6.1754	-29.053247	0.001459	14.594022	2.472294	-0.000292
1316	1.3084e+02	-6.1958	-29.287401	0.001176	11.756296	1.991570	-0.000235
1317	1.3094e+02	-6.2158	-29.529629	0.001216	12.161685	2.060245	-0.000243
1318	1.3104e+02	-6.2356	-29.800117	0.001358	13.580549	2.300607	-0.000272
1319	1.3114e+02	-6.2549	-30.046383	0.001236	12.364380	2.094583	-0.000248
1320	1.3124e+02	-6.2753	-30.308797	0.001318	13.175159	2.231932	-0.000264
1321	1.3134e+02	-6.2949	-30.546988	0.001196	11.958991	2.025908	-0.000239
1322	1.3144e+02	-6.3148	-30.825550	0.001399	13.985938	2.369282	-0.000280
1323	1.3154e+02	-6.3345	-31.087964	0.001318	13.175159	2.231932	-0.000264
1324	1.3164e+02	-6.3542	-31.310006	0.001115	11.148212	1.888558	-0.000223
1325	1.3174e+02	-6.3744	-31.584531	0.001378	13.783243	2.334945	-0.000276
1326	1.3184e+02	-6.3953	-31.802537	0.001095	10.945517	1.854221	-0.000219
1327	1.3194e+02	-6.4133	-32.117433	0.001581	15.810191	2.678319	-0.000316
1328	1.3204e+02	-6.4343	-32.383884	0.001338	13.377854	2.266270	-0.000268
1329	1.3214e+02	-6.4539	-32.626112	0.001216	12.161685	2.060245	-0.000243
1330	1.3224e+02	-6.4742	-32.872378	0.001236	12.364380	2.094583	-0.000248
1331	1.3234e+02	-6.4943	-33.118643	0.001236	12.364380	2.094583	-0.000248
1332	1.3243e+02	-6.5134	-33.397205	0.001399	13.985938	2.369282	-0.000280
1333	1.3253e+02	-6.5341	-33.655582	0.001297	12.972464	2.197595	-0.000260
1334	1.3263e+02	-6.5536	-33.930107	0.001378	13.783243	2.334945	-0.000276
1335	1.3273e+02	-6.5735	-34.188484	0.001297	12.972464	2.197595	-0.000260
1336	1.3283e+02	-6.5933	-34.463009	0.001378	13.783243	2.334945	-0.000276
1337	1.3293e+02	-6.6139	-34.745609	0.001419	14.188633	2.403619	-0.000284
1338	1.3303e+02	-6.6341	-35.003985	0.001297	12.972464	2.197595	-0.000260
1339	1.3313e+02	-6.6531	-35.298696	0.001480	14.796717	2.506632	-0.000296
1340	1.3323e+02	-6.6743	-35.540924	0.001216	12.161685	2.060245	-0.000243
1341	1.3333e+02	-6.6934	-35.791227	0.001257	12.567075	2.128920	-0.000252
1342	1.3343e+02	-6.7135	-36.089975	0.001500	14.999412	2.540969	-0.000300
1343	1.3353e+02	-6.7331	-36.348352	0.001297	12.972464	2.197595	-0.000260
1344	1.3363e+02	-6.7529	-36.634988	0.001439	14.391328	2.437957	-0.000288
1345	1.3373e+02	-6.7722	-36.925662	0.001459	14.594022	2.472294	-0.000292
1346	1.3383e+02	-6.7923	-37.184039	0.001297	12.972464	2.197595	-0.000260
1347	1.3393e+02	-6.8130	-37.458564	0.001378	13.783243	2.334945	-0.000276
1348	1.3403e+02	-6.8330	-37.729052	0.001358	13.580549	2.300607	-0.000272
1349	1.3413e+02	-6.8526	-38.056060	0.001642	16.418275	2.781331	-0.000329
1350	1.3423e+02	-6.8724	-38.338660	0.001419	14.188633	2.403619	-0.000284
1351	1.3432e+02	-6.8924	-38.597036	0.001297	12.972464	2.197595	-0.000260
1352	1.3442e+02	-6.9135	-38.903859	0.001540	15.404801	2.609644	-0.000308
1353	1.3452e+02	-6.9326	-39.142050	0.001196	11.958991	2.025908	-0.000239
1354	1.3462e+02	-6.9521	-39.469058	0.001642	16.418275	2.781331	-0.000329
1355	1.3472e+02	-6.9730	-39.711286	0.001216	12.161685	2.060245	-0.000243
1356	1.3482e+02	-6.9920	-40.074628	0.001824	18.242528	3.090368	-0.000365
1357	1.3492e+02	-7.0123	-40.333005	0.001297	12.972464	2.197595	-0.000260
1358	1.3502e+02	-7.0320	-40.631753	0.001500	14.999412	2.540969	-0.000300
1359	1.3512e+02	-7.0525	-40.890129	0.001297	12.972464	2.197595	-0.000260
1360	1.3522e+02	-7.0720	-41.205026	0.001581	15.810191	2.678319	-0.000316
1361	1.3532e+02	-7.0926	-41.479551	0.001378	13.783243	2.334945	-0.000276
1362	1.3542e+02	-7.1115	-41.790411	0.001561	15.607496	2.643981	-0.000312
1363	1.3552e+02	-7.1312	-42.121456	0.001662	16.620970	2.815669	-0.000333
1364	1.3562e+02	-7.1519	-42.383870	0.001318	13.175159	2.231932	-0.000264
1365	1.3572e+02	-7.1704	-42.686655	0.001520	15.202107	2.575307	-0.000304
1366	1.3582e+02	-7.1906	-43.013663	0.001642	16.418275	2.781331	-0.000329
1367	1.3592e+02	-7.2116	-43.368931	0.001784	17.837139	3.021693	-0.000357
1368	1.3602e+02	-7.2313	-43.619233	0.001257	12.567075	2.128920	-0.000252
1369	1.3612e+02	-7.2507	-43.934130	0.001581	15.810191	2.678319	-0.000316
1370	1.3622e+02	-7.2712	-44.228841	0.001480	14.796717	2.506632	-0.000296
1371	1.3631e+02	-7.2906	-44.551811	0.001622	16.215580	2.746994	-0.000325
1372	1.3641e+02	-7.3105	-44.854597	0.001520	15.202107	2.575307	-0.000304
1373	1.3651e+02	-7.3310	-45.169493	0.001581	15.810191	2.678319	-0.000316
1374	1.3661e+02	-7.3508	-45.472278	0.001520	15.202107	2.575307	-0.000304
1375	1.3671e+02	-7.3702	-45.811398	0.001703	17.026360	2.884343	-0.000341
1376	1.3681e+02	-7.3904	-46.102072	0.001459	14.594022	2.472294	-0.000292
1377	1.3691e+02	-7.4103	-46.433117	0.001662	16.620970	2.815669	-0.000333
1378	1.3701e+02	-7.4304	-46.756088	0.001622	16.215580	2.746994	-0.000325
1379	1.3711e+02	-7.4510	-47.099244	0.001723	17.229054	2.918681	-0.000345
1380	1.3721e+02	-7.4698	-47.462586	0.001824	18.242528	3.090368	-0.000365
1381	1.3731e+02	-7.4902	-47.757297	0.001480	14.796717	2.506632	-0.000296
1382	1.3741e+02	-7.5107	-48.080268	0.001622	16.215580	2.746994	-0.000325
1383	1.3751e+02	-7.5305	-48.411313	0.001662	16.620970	2.815669	-0.000333
1384	1.3761e+02	-7.5494	-48.762544	0.001763	17.634444	2.987356	-0.000353
1385	1.3771e+02	-7.5702	-49.093589	0.001662	16.620970	2.815669	-0.000333
1386	1.3781e+02	-7.5896	-49.444820	0.001763	17.634444	2.987356	-0.000353
1387	1.3791e+02	-7.6086	-49.743568	0.001500	14.999412	2.540969	-0.000300
1388	1.3801e+02	-7.6292	-50.102873	0.001804	18.039833	3.056030	-0.000361
1389	1.3811e+02	-7.6486	-50.421807	0.001601	16.012886	2.712656	-0.000321
1390	1.3821e+02	-7.6683	-50.817446	0.001986	19.864086	3.365067	-0.000398
1391	1.3831e+02	-7.6891	-51.104083	0.001439	14.391328	2.437957	-0.000288
1392	1.3840e+02	-7.7087	-51.467425	0.001824	18.242528	3.090368	-0.000365
1393	1.3850e+02	-7.7292	-51.834804	0.001845	18.445223	3.124705	-0.000369
1394	1.3860e+02	-7.7481	-52.161812	0.001642	16.418275	2.781331	-0.000329
1395	1.3870e+02	-7.7690	-52.517080	0.001784	17.837139	3.021693	-0.000357
1396	1.3880e+02	-7.7881	-52.884460	0.001845	18.445223	3.124705	-0.000369
1397	1.3890e+02	-7.8095	-53.223579	0.001703	17.026360	2.884343	-0.000341
1398	1.3900e+02	-7.8284	-53.611144	0.001946	19.458697	3.296392	-0.000390
1399	1.3910e+02	-7.8473	-53.917966	0.001540	15.404801	2.609644	-0.000308
1400	1.3920e+02	-7.8676	-54.305531	0.001946	19.458697	3.296392	-0.000390
1401	1.3930e+02	-7.8882	-54.664836	0.001804	18.039833	3.056030	-0.000361
1402	1.3940e+02	-7.9082	-55.020104	0.001784	17.837139	3.021693	-0.000357
1403	1.3950e+02	-7.9274	-55.423818	0.002027	20.269476	3.433742	-0.000406
1404	1.3960e+02	-7.9491	-55.754863	0.001662	16.620970	2.815669	-0.000333
1405	1.3970e+02	-7.9682	-56.114168	0.001804	18.039833	3.056030	-0.000361
1406	1.3980e+02	-7.9880	-56.465399	0.001763	17.634444	2.987356	-0.000353
1407	1.3990e+02	-8.0078	-56.889298	0.002128	21.282949	3.605429	-0.000426
1408	1.4000e+02	-8.0273	-57.244566	0.001784	17.837139	3.021693	-0.000357
1409	1.4010e+02	-8.0470	-57.656354	0.002067	20.674865	3.502417	-0.000414
1410	1.4020e+02	-8.0670	-58.015659	0.001804	18.039833	3.056030	-0.000361
1411	1.4029e+02	-8.0876	-58.395150	0.001905	19.053307	3.227718	-0.000381
1412	1.4039e+02	-8.1072	-58.742344	0.001743	17.431749	2.953018	-0.000349
1413	1.4049e+02	-8.1274	-59.210651	0.002351	23.512592	3.983141	-0.000471
1414	1.4059e+02	-8.1474	-59.594179	0.001926	19.256002	3.262055	-0.000385
1415	1.4069e+02	-8.1674	-59.929261	0.001682	16.823665	2.850006	-0.000337
1416	1.4079e+02	-8.1879	-60.381421	0.002270	22.701813	3.845791	-0.000454
1417	1.4089e+02	-8.2059	-60.777060	0.001986	19.864086	3.365067	-0.000398
1418	1.4099e+02	-8.2273	-61.148476	0.001865	18.647918	3.159043	-0.000373
1419	1.4109e+02	-8.2462	-61.556227	0.002047	20.472170	3.468080	-0.000410
1420	1.4119e+02	-8.2661	-61.984164	0.002149	21.485644	3.639767	-0.000430
1421	1.4129e+02	-8.2870	-62.383840	0.002007	20.066781	3.399405	-0.000402
1422	1.4139e+02	-8.3069	-62.803702	0.002108	21.080255	3.571092	-0.000422
1423	1.4149e+02	-8.3261	-63.195304	0.001966	19.661391	3.330730	-0.000394
1424	1.4159e+02	-8.3467	-63.655538	0.002311	23.107202	3.914466	-0.000463
1425	1.4169e+02	-8.3652	-64.071363	0.002088	20.877560	3.536754	-0.000418
1426	1.4179e+02	-8.3861	-64.495262	0.002128	21.282949	3.605429	-0.000426
1427	1.4189e+02	-8.4061	-64.903013	0.002047	20.472170	3.468080	-0.000410
1428	1.4199e+02	-8.4261	-65.363246	0.002311	23.107202	3.914466	-0.000463
1429	1.4209e+02	-8.4467	-65.754848	0.001966	19.661391	3.330730	-0.000394
1430	1.4219e+02	-8.4666	-66.198933	0.002230	22.296423	3.777116	-0.000446
1431	1.4228e+02	-8.4859	-66.643018	0.002230	22.296423	3.777116	-0.000446
1432	1.4238e+02	-8.5056	-67.058843	0.002088	20.877560	3.536754	-0.000418
1433	1.4248e+02	-8.5251	-67.523114	0.002331	23.309897	3.948803	-0.000467
1434	1.4258e+02	-8.5458	-67.979310	0.002290	22.904507	3.880129	-0.000458
1435	1.4268e+02	-8.5659	-68.391098	0.002067	20.674865	3.502417	-0.000414
1436	1.4278e+02	-8.5852	-68.823071	0.002169	21.688339	3.674104	-0.000434
1437	1.4288e+02	-8.6054	-69.287342	0.002331	23.309897	3.948803	-0.000467
1438	1.4298e+02	-8.6254	-69.743538	0.002290	22.904507	3.880129	-0.000458
1439	1.4308e+02	-8.6449	-70.199735	0.002290	22.904507	3.880129	-0.000458
1440	1.4318e+02	-8.6650	-70.643820	0.002230	22.296423	3.777116	-0.000446
1441	1.4328e+02	-8.6852	-71.095979	0.002270	22.701813	3.845791	-0.000454
1442	1.4338e+02	-8.7048	-71.568324	0.002372	23.715286	4.017478	-0.000475
1443	1.4348e+02	-8.7253	-72.072966	0.002534	25.336845	4.292178	-0.000507
1444	1.4358e+02	-8.7451	-72.525125	0.002270	22.701813	3.845791	-0.000454
1445	1.4368e+02	-8.7646	-73.029767	0.002534	25.336845	4.292178	-0.000507
1446	1.4378e+02	-8.7848	-73.457703	0.002149	21.485644	3.639767	-0.000430
1447	1.4388e+02	-8.8048	-73.958308	0.002513	25.134150	4.257840	-0.000503
1448	1.4398e+02	-8.8244	-74.454876	0.002493	24.931455	4.223503	-0.000499
1449	1.4408e+02	-8.8442	-74.947406	0.002473	24.728760	4.189165	-0.000495
1450	1.4418e+02	-8.8638	-75.456086	0.002554	25.539539	4.326515	-0.000511
1451	1.4428e+02	-8.8843	-75.920356	0.002331	23.309897	3.948803	-0.000467
1452	1.4437e+02	-8.9035	-76.429035	0.002554	25.539539	4.326515	-0.000511
1453	1.4447e+02	-8.9239	-76.978086	0.002757	27.566487	4.669889	-0.000552
1454	1.4457e+02	-8.9435	-77.422171	0.002230	22.296423	3.777116	-0.000446
1455	1.4467e+02	-8.9630	-77.942961	0.002615	26.147624	4.429527	-0.000523
1456	1.4477e+02	-8.9832	-78.487974	0.002736	27.363792	4.635552	-0.000548
1457	1.4487e+02	-9.0044	-79.028951	0.002716	27.161097	4.601214	-0.000544
1458	1.4497e+02	-9.0234	-79.464961	0.002189	21.891034	3.708441	-0.000438
1459	1.4507e+02	-9.0436	-80.009975	0.002736	27.363792	4.635552	-0.000548
1460	1.4517e+02	-9.0632	-80.567099	0.002797	27.971876	4.738564	-0.000560
1461	1.4527e+02	-9.0841	-81.100001	0.002676	26.755708	4.532540	-0.000536
1462	1.4537e+02	-9.1032	-81.608680	0.002554	25.539539	4.326515	-0.000511
1463	1.4547e+02	-9.1219	-82.157731	0.002757	27.566487	4.669889	-0.000552
1464	1.4557e+02	-9.1426	-82.666410	0.002554	25.539539	4.326515	-0.000511
1465	1.4567e+02	-9.1620	-83.231609	0.002838	28.377266	4.807239	-0.000568
1466	1.4577e+02	-9.1830	-83.804882	0.002878	28.782655	4.875914	-0.000576
1467	1.4587e+02	-9.2036	-84.321636	0.002594	25.944929	4.395190	-0.000519
1468	1.4597e+02	-9.2231	-84.902983	0.002919	29.188045	4.944589	-0.000584
1469	1.4607e+02	-9.2429	-85.492405	0.002959	29.593434	5.013264	-0.000592
1470	1.4617e+02	-9.2627	-86.081827	0.002959	29.593434	5.013264	-0.000592
1471	1.4626e+02	-9.2830	-86.626840	0.002736	27.363792	4.635552	-0.000548
1472	1.4636e+02	-9.3024	-87.228373	0.003020	30.201519	5.116276	-0.000605
1473	1.4646e+02	-9.3216	-87.773387	0.002736	27.363792	4.635552	-0.000548
1474	1.4656e+02	-9.3428	-88.374920	0.003020	30.201519	5.116276	-0.000605
1475	1.4666e+02	-9.3624	-88.940119	0.002838	28.377266	4.807239	-0.000568
1476	1.4676e+02	-9.3835	-89.594135	0.003284	32.836551	5.562662	-0.000657
1477	1.4686e+02	-9.4022	-90.167408	0.002878	28.782655	4.875914	-0.000576
1478	1.4696e+02	-9.4218	-90.748756	0.002919	29.188045	4.944589	-0.000584
1479	1.4706e+02	-9.4418	-91.370475	0.003121	31.214992	5.287963	-0.000625
1480	1.4716e+02	-9.4624	-92.008342	0.003203	32.025771	5.425313	-0.000641
1481	1.4726e+02	-9.4822	-92.638135	0.003162	31.620382	5.356638	-0.000633
1482	1.4736e+02	-9.5018	-93.243706	0.003040	30.404213	5.150613	-0.000609
1483	1.4746e+02	-9.5224	-93.905796	0.003324	33.241940	5.631337	-0.000665
1484	1.4756e+02	-9.5407	-94.535589	0.003162	31.620382	5.356638	-0.000633
1485	1.4766e+02	-9.5604	-95.125011	0.002959	29.593434	5.013264	-0.000592
1486	1.4776e+02	-9.5805	-95.811324	0.003446	34.458109	5.837362	-0.000690
1487	1.4786e+02	-9.6011	-96.429006	0.003101	31.012298	5.253625	-0.000621
1488	1.4796e+02	-9.6210	-97.155690	0.003649	36.485056	6.180736	-0.000730
1489	1.4806e+02	-9.6407	-97.789520	0.003182	31.823077	5.390975	-0.000637
1490	1.4816e+02	-9.6609	-98.435462	0.003243	32.431161	5.493987	-0.000649
1491	1.4825e+02	-9.6793	-99.158109	0.003628	36.282361	6.146398	-0.000726
1492	1.4835e+02	-9.6999	-99.800014	0.003223	32.228466	5.459650	-0.000645
1493	1.4845e+02	-9.7208	-100.474216	0.003385	33.850024	5.734349	-0.000678
1494	1.4855e+02	-9.7408	-101.196863	0.003628	36.282361	6.146398	-0.000726
1495	1.4865e+02	-9.7603	-101.895287	0.003507	35.066193	5.940374	-0.000702
1496	1.4875e+02	-9.7810	-102.585638	0.003466	34.660803	5.871699	-0.000694
1497	1.4885e+02	-9.8004	-103.284062	0.003507	35.066193	5.940374	-0.000702
1498	1.4895e+02	-9.8207	-104.030932	0.003750	37.498530	6.352423	-0.000751
1499	1.4905e+02	-9.8408	-104.729357	0.003507	35.066193	5.940374	-0.000702
1500	1.4915e+02	-9.8605	-105.407596	0.003405	34.052719	5.768687	-0.000682
1501	1.4925e+02	-9.8799	-106.146391	0.003709	37.093140	6.283748	-0.000743
1502	1.4935e+02	-9.9003	-106.881150	0.003689	36.890446	6.249411	-0.000738
1503	1.4945e+02	-9.9197	-107.623983	0.003730	37.295835	6.318086	-0.000747
1504	1.4955e+02	-9.9393	-108.439484	0.004094	40.944341	6.936159	-0.000820
1505	1.4965e+02	-9.9605	-109.166169	0.003649	36.485056	6.180736	-0.000730
1506	1.4975e+02	-9.9805	-109.961485	0.003993	39.930867	6.764472	-0.000799
1507	1.4985e+02	-9.9994	-110.712392	0.003770	37.701225	6.386760	-0.000755
1508	1.4995e+02	-9.9811	-111.212997	-0.002513	-25.134150	-4.257840	-0.000503
1509	1.5005e+02	-9.9597	-111.717639	-0.002534	-25.336845	-4.292178	-0.000507
1510	1.5015e+02	-9.9387	-112.165761	-0.002250	-22.499118	-3.811454	-0.000450
1511	1.5025e+02	-9.9203	-112.638106	-0.002372	-23.715286	-4.017478	-0.000475
1512	1.5034e+02	-9.9008	-113.094302	-0.002290	-22.904507	-3.880129	-0.000458
1513	1.5044e+02	-9.8797	-113.510127	-0.002088	-20.877560	-3.536754	-0.000418
1514	1.5054e+02	-9.8604	-113.934026	-0.002128	-21.282949	-3.605429	-0.000426
1515	1.5064e+02	-9.8398	-114.309480	-0.001885	-18.850612	-3.193380	-0.000377
1516	1.5074e+02	-9.8202	-114.660711	-0.001763	-17.634444	-2.987356	-0.000353
1517	1.5084e+02	-9.8009	-115.040201	-0.001905	-19.053307	-3.227718	-0.000381
1518	1.5094e+02	-9.7806	-115.371247	-0.001662	-16.620970	-2.815669	-0.000333
1519	1.5104e+02	-9.7604	-115.690180	-0.001601	-16.012886	-2.712656	-0.000321
1520	1.5114e+02	-9.7407	-116.025263	-0.001682	-16.823665	-2.850006	-0.000337
1521	1.5124e+02	-9.7205	-116.356308	-0.001662	-16.620970	-2.815669	-0.000333
1522	1.5134e+02	-9.7006	-116.638907	-0.001419	-14.188633	-2.403619	-0.000284
1523	1.5144e+02	-9.6805	-116.917470	-0.001399	-13.985938	-2.369282	-0.000280
1524	1.5154e+02	-9.6613	-117.232366	-0.001581	-15.810191	-2.678319	-0.000316
1525	1.5164e+02	-9.6411	-117.543226	-0.001561	-15.607496	-2.643981	-0.000312
1526	1.5174e+02	-9.6211	-117.789491	-0.001236	-12.364380	-2.094583	-0.000248
1527	1.5184e+02	-9.6011	-118.023645	-0.001176	-11.756296	-1.991570	-0.000235
1528	1.5194e+02	-9.5810	-118.277984	-0.001277	-12.769770	-2.163258	-0.000256
1529	1.5204e+02	-9.5611	-118.536361	-0.001297	-12.972464	-2.197595	-0.000260
1530	1.5214e+02	-9.5415	-118.754366	-0.001095	-10.945517	-1.854221	-0.000219
1531	1.5224e+02	-9.5221	-118.940075	-0.000932	-9.323959	-1.579521	-0.000187
1532	1.5233e+02	-9.5007	-119.186340	-0.001236	-12.364380	-2.094583	-0.000248
1533	1.5243e+02	-9.4814	-119.355900	-0.000851	-8.513180	-1.442172	-0.000170
1534	1.5253e+02	-9.4614	-119.594091	-0.001196	-11.958991	-2.025908	-0.000239
1535	1.5263e+02	-9.4428	-119.828244	-0.001176	-11.756296	-1.991570	-0.000235
1536	1.5273e+02	-9.4209	-119.997804	-0.000851	-8.513180	-1.442172	-0.000170
1537	1.5283e+02	-9.4011	-120.207735	-0.001054	-10.540127	-1.785546	-0.000211
1538	1.5293e+02	-9.3828	-120.369221	-0.000811	-8.107790	-1.373497	-0.000162
1539	1.5303e+02	-9.3617	-120.534743	-0.000831	-8.310485	-1.407834	-0.000166
1540	1.5313e+02	-9.3430	-120.651820	-0.000588	-5.878148	-0.995785	-0.000118
1541	1.5323e+02	-9.3210	-120.845603	-0.000973	-9.729348	-1.648196	-0.000195
1542	1.5333e+02	-9.3016	-120.990940	-0.000730	-7.297011	-1.236147	-0.000146
1543	1.5343e+02	-9.2827	-121.136276	-0.000730	-7.297011	-1.236147	-0.000146
1544	1.5353e+02	-9.2618	-121.269502	-0.000669	-6.688927	-1.133135	-0.000134
1545	1.5363e+02	-9.2429	-121.410802	-0.000709	-7.094316	-1.201810	-0.000142
1546	1.5373e+02	-9.2226	-121.560176	-0.000750	-7.499706	-1.270485	-0.000150
1547	1.5383e+02	-9.2026	-121.657067	-0.000486	-4.864674	-0.824098	-0.000097
1548	1.5393e+02	-9.1827	-121.782218	-0.000628	-6.283537	-1.064460	-0.000126
1549	1.5403e+02	-9.1629	-121.939666	-0.000791	-7.905095	-1.339159	-0.000158
1550	1.5413e+02	-9.1437	-122.040595	-0.000507	-5.067369	-0.858436	-0.000101
1551	1.5422e+02	-9.1232	-122.149597	-0.000547	-5.472758	-0.927110	-0.000110
1552	1.5432e+02	-9.1025	-122.254563	-0.000527	-5.270064	-0.892773	-0.000105
1553	1.5442e+02	-9.0833	-122.359529	-0.000527	-5.270064	-0.892773	-0.000105
1554	1.5452e+02	-9.0637	-122.416048	-0.000284	-2.837727	-0.480724	-0.000057
1555	1.5462e+02	-9.0430	-122.500828	-0.000426	-4.256590	-0.721086	-0.000085
1556	1.5472e+02	-9.0231	-122.553311	-0.000264	-2.635032	-0.446386	-0.000053
1557	1.5482e+02	-9.0026	-122.702685	-0.000750	-7.499706	-1.270485	-0.000150
1558	1.5492e+02	-8.9827	-122.706722	-0.000020	-0.202695	-0.034337	-0.000004
1559	1.5502e+02	-8.9631	-122.799576	-0.000466	-4.661979	-0.789761	-0.000093
1560	1.5512e+02	-8.9441	-122.860133	-0.000304	-3.040421	-0.515061	-0.000061
1561	1.5522e+02	-8.9241	-122.940876	-0.000405	-4.053895	-0.686748	-0.000081
1562	1.5532e+02	-8.9047	-123.005470	-0.000324	-3.243116	-0.549399	-0.000065
1563	1.5542e+02	-8.8832	-123.033730	-0.000142	-1.418863	-0.240362	-0.000028
1564	1.5552e+02	-8.8644	-123.066027	-0.000162	-1.621558	-0.274699	-0.000032
1565	1.5562e+02	-8.8437	-123.150807	-0.000426	-4.256590	-0.721086	-0.000085
1566	1.5572e+02	-8.8243	-123.183104	-0.000162	-1.621558	-0.274699	-0.000032
1567	1.5582e+02	-8.8046	-123.243661	-0.000304	-3.040421	-0.515061	-0.000061
1568	1.5592e+02	-8.7842	-123.263847	-0.000101	-1.013474	-0.171687	-0.000020
1569	1.5602e+02	-8.7656	-123.336515	-0.000365	-3.648506	-0.618074	-0.000073
1570	1.5612e+02	-8.7444	-123.316330	0.000101	1.013474	0.171687	0.000020
1571	1.5622e+02	-8.7251	-123.348627	-0.000162	-1.621558	-0.274699	-0.000032
1572	1.5631e+02	-8.7044	-123.348627	0.000000	0.000000	0.000000	0.000000
1573	1.5641e+02	-8.6852	-123.401110	-0.000264	-2.635032	-0.446386	-0.000053
1574	1.5651e+02	-8.6652	-123.405147	-0.000020	-0.202695	-0.034337	-0.000004
1575	1.5661e+02	-8.6447	-123.393035	0.000061	0.608084	0.103012	0.000012
1576	1.5671e+02	-8.6247	-123.445518	-0.000264	-2.635032	-0.446386	-0.000053
1577	1.5681e+02	-8.6049	-123.485889	-0.000203	-2.026948	-0.343374	-0.000041
1578	1.5691e+02	-8.5863	-123.437444	0.000243	2.432337	0.412049	0.000049
1579	1.5701e+02	-8.5651	-123.485889	-0.000243	-2.432337	-0.412049	-0.000049
1580	1.5711e+02	-8.5460	-123.453592	0.000162	1.621558	0.274699	0.000032
1581	1.5721e+02	-8.5269	-123.457629	-0.000020	-0.202695	-0.034337	-0.000004
1582	1.5731e+02	-8.5049	-123.461667	-0.000020	-0.202695	-0.034337	-0.000004
1583	1.5741e+02	-8.4868	-123.498001	-0.000182	-1.824253	-0.309037	-0.000037
1584	1.5751e+02	-8.4660	-123.485889	0.000061	0.608084	0.103012	0.000012
1585	1.5761e+02	-8.4453	-123.465704	0.000101	1.013474	0.171687	0.000020
1586	1.5771e+02	-8.4262	-123.453592	0.000061	0.608084	0.103012	0.000012
1587	1.5781e+02	-8.4052	-123.429369	0.000122	1.216169	0.206025	0.000024
1588	1.5791e+02	-8.3864	-123.409184	0.000101	1.013474	0.171687	0.000020
1589	1.5801e+02	-8.3655	-123.356701	0.000264	2.635032	0.446386	0.000053
1590	1.5811e+02	-8.3459	-123.405147	-0.000243	-2.432337	-0.412049	-0.000049
1591	1.5821e+02	-8.3264	-123.364775	0.000203	2.026948	0.343374	0.000041
1592	1.5830e+02	-8.3063	-123.344590	0.000101	1.013474	0.171687	0.000020
1593	1.5840e+02	-8.2865	-123.288070	0.000284	2.837727	0.480724	0.000057
1594	1.5850e+02	-8.2671	-123.284033	0.000020	0.202695	0.034337	0.000004
1595	1.5860e+02	-8.2468	-123.267884	0.000081	0.810779	0.137350	0.000016
1596	1.5870e+02	-8.2263	-123.187141	0.000405	4.053895	0.686748	0.000081
1597	1.5880e+02	-8.2076	-123.183104	0.000020	0.202695	0.034337	0.000004
1598	1.5890e+02	-8.1870	-123.183104	0.000000	0.000000	0.000000	0.000000
1599	1.5900e+02	-8.1674	-123.094287	0.000446	4.459285	0.755423	0.000089
1600	1.5910e+02	-8.1476	-123.041804	0.000264	2.635032	0.446386	0.000053
1601	1.5920e+02	-8.1273	-123.066027	-0.000122	-1.216169	-0.206025	-0.000024
1602	1.5930e+02	-8.1069	-122.981247	0.000426	4.256590	0.721086	0.000085
1603	1.5940e+02	-8.0878	-122.944913	0.000182	1.824253	0.309037	0.000037
1604	1.5950e+02	-8.0670	-122.888393	0.000284	2.837727	0.480724	0.000057
1605	1.5960e+02	-8.0467	-122.803613	0.000426	4.256590	0.721086	0.000085
1606	1.5970e+02	-8.0276	-122.811688	-0.000041	-0.405390	-0.068675	-0.000008
1607	1.5980e+02	-8.0073	-122.734982	0.000385	3.851200	0.652411	0.000077
1608	1.5990e+02	-7.9873	-122.674425	0.000304	3.040421	0.515061	0.000061
1609	1.6000e+02	-7.9674	-122.654239	0.000101	1.013474	0.171687	0.000020
1610	1.6010e+02	-7.9488	-122.569460	0.000426	4.256590	0.721086	0.000085
1611	1.6019e+02	-7.9276	-122.488717	0.000405	4.053895	0.686748	0.000081
1612	1.6029e+02	-7.9085	-122.456420	0.000162	1.621558	0.274699	0.000032
1613	1.6039e+02	-7.8879	-122.391826	0.000324	3.243116	0.549399	0.000065
1614	1.6049e+02	-7.8676	-122.311083	0.000405	4.053895	0.686748	0.000081
1615	1.6059e+02	-7.8476	-122.262637	0.000243	2.432337	0.412049	0.000049
1616	1.6069e+02	-7.8285	-122.189969	0.000365	3.648506	0.618074	0.000073
1617	1.6079e+02	-7.8081	-122.076929	0.000568	5.675453	0.961448	0.000114
1618	1.6089e+02	-7.7896	-122.048669	0.000142	1.418863	0.240362	0.000028
1619	1.6099e+02	-7.7684	-121.992149	0.000284	2.837727	0.480724	0.000057
1620	1.6109e+02	-7.7481	-121.895258	0.000486	4.864674	0.824098	0.000097
1621	1.6119e+02	-7.7279	-121.786255	0.000547	5.472758	0.927110	0.000110
1622	1.6129e+02	-7.7090	-121.733772	0.000264	2.635032	0.446386	0.000053
1623	1.6139e+02	-7.6889	-121.689364	0.000223	2.229642	0.377712	0.000045
1624	1.6149e+02	-7.6694	-121.596510	0.000466	4.661979	0.789761	0.000093
1625	1.6159e+02	-7.6477	-121.499619	0.000486	4.864674	0.824098	0.000097
1626	1.6169e+02	-7.6290	-121.471359	0.000142	1.418863	0.240362	0.000028
1627	1.6179e+02	-7.6086	-121.342170	0.000649	6.486232	1.098797	0.000130
1628	1.6189e+02	-7.5900	-121.257390	0.000426	4.256590	0.721086	0.000085
1629	1.6199e+02	-7.5697	-121.204908	0.000264	2.635032	0.446386	0.000053
1630	1.6209e+02	-7.5491	-121.148388	0.000284	2.837727	0.480724	0.000057
1631	1.6219e+02	-7.5304	-121.051497	0.000486	4.864674	0.824098	0.000097
1632	1.6228e+02	-7.5104	-120.966717	0.000426	4.256590	0.721086	0.000085
1633	1.6238e+02	-7.4905	-120.890011	0.000385	3.851200	0.652411	0.000077
1634	1.6248e+02	-7.4699	-120.813306	0.000385	3.851200	0.652411	0.000077
1635	1.6258e+02	-7.4503	-120.663932	0.000750	7.499706	1.270485	0.000150
1636	1.6268e+02	-7.4312	-120.607412	0.000284	2.837727	0.480724	0.000057
1637	1.6278e+02	-7.4094	-120.550892	0.000284	2.837727	0.480724	0.000057
1638	1.6288e+02	-7.3912	-120.417666	0.000669	6.688927	1.133135	0.000134
1639	1.6298e+02	-7.3706	-120.312701	0.000527	5.270064	0.892773	0.000105
1640	1.6308e+02	-7.3512	-120.244069	0.000345	3.445811	0.583736	0.000069
1641	1.6318e+02	-7.3309	-120.191587	0.000264	2.635032	0.446386	0.000053
1642	1.6328e+02	-7.3102	-119.989730	0.001013	10.134738	1.716871	0.000203
1643	1.6338e+02	-7.2906	-119.997804	-0.000041	-0.405390	-0.068675	-0.000008
1644	1.6348e+02	-7.2702	-119.816133	0.000912	9.121264	1.545184	0.000183
1645	1.6358e+02	-7.2498	-119.747502	0.000345	3.445811	0.583736	0.000069
1646	1.6368e+02	-7.2313	-119.686945	0.000304	3.040421	0.515061	0.000061
1647	1.6378e+02	-7.2116	-119.565831	0.000608	6.080843	1.030123	0.000122
1648	1.6388e+02	-7.1921	-119.477014	0.000446	4.459285	0.755423	0.000089
1649	1.6398e+02	-7.1713	-119.392234	0.000426	4.256590	0.721086	0.000085
1650	1.6408e+02	-7.1512	-119.263045	0.000649	6.486232	1.098797	0.000130
1651	1.6418e+02	-7.1323	-119.133857	0.000649	6.486232	1.098797	0.000130
1652	1.6427e+02	-7.1115	-119.061189	0.000365	3.648506	0.618074	0.000073
1653	1.6437e+02	-7.0921	-118.980446	0.000405	4.053895	0.686748	0.000081
1654	1.6447e+02	-7.0716	-118.871443	0.000547	5.472758	0.927110	0.000110
1655	1.6457e+02	-7.0514	-118.758403	0.000568	5.675453	0.961448	0.000114
1656	1.6467e+02	-7.0316	-118.673624	0.000426	4.256590	0.721086	0.000085
1657	1.6477e+02	-7.0114	-118.540398	0.000669	6.688927	1.133135	0.000134
1658	1.6487e+02	-6.9923	-118.443507	0.000486	4.864674	0.824098	0.000097
1659	1.6497e+02	-6.9722	-118.334504	0.000547	5.472758	0.927110	0.000110
1660	1.6507e+02	-6.9522	-118.221464	0.000568	5.675453	0.961448	0.000114
1661	1.6517e+02	-6.9323	-118.100350	0.000608	6.080843	1.030123	0.000122
1662	1.6527e+02	-6.9119	-117.991348	0.000547	5.472758	0.927110	0.000110
1663	1.6537e+02	-6.8932	-117.914642	0.000385	3.851200	0.652411	0.000077
1664	1.6547e+02	-6.8735	-117.805639	0.000547	5.472758	0.927110	0.000110
1665	1.6557e+02	-6.8523	-117.676451	0.000649	6.486232	1.098797	0.000130
1666	1.6567e+02	-6.8329	-117.535151	0.000709	7.094316	1.201810	0.000142
1667	1.6577e+02	-6.8133	-117.422112	0.000568	5.675453	0.961448	0.000114
1668	1.6587e+02	-6.7928	-117.321183	0.000507	5.067369	0.858436	0.000101
1669	1.6597e+02	-6.7725	-117.183921	0.000689	6.891622	1.167472	0.000138
1670	1.6607e+02	-6.7529	-117.103178	0.000405	4.053895	0.686748	0.000081
1671	1.6616e+02	-6.7332	-116.998212	0.000527	5.270064	0.892773	0.000105
1672	1.6626e+02	-6.7123	-116.873061	0.000628	6.283537	1.064460	0.000126
1673	1.6636e+02	-6.6938	-116.715613	0.000791	7.905095	1.339159	0.000158
1674	1.6646e+02	-6.6739	-116.586424	0.000649	6.486232	1.098797	0.000130
1675	1.6656e+02	-6.6522	-116.473385	0.000568	5.675453	0.961448	0.000114
1676	1.6666e+02	-6.6336	-116.372456	0.000507	5.067369	0.858436	0.000101
1677	1.6676e+02	-6.6142	-116.231156	0.000709	7.094316	1.201810	0.000142
1678	1.6686e+02	-6.5936	-116.134265	0.000486	4.864674	0.824098	0.000097
1679	1.6696e+02	-6.5735	-116.005077	0.000649	6.486232	1.098797	0.000130
1680	1.6706e+02	-6.5540	-115.883963	0.000608	6.080843	1.030123	0.000122
1681	1.6716e+02	-6.5341	-115.750737	0.000669	6.688927	1.133135	0.000134
1682	1.6726e+02	-6.5134	-115.605400	0.000730	7.297011	1.236147	0.000146
1683	1.6736e+02	-6.4936	-115.496398	0.000547	5.472758	0.927110	0.000110
1684	1.6746e+02	-6.4742	-115.411618	0.000426	4.256590	0.721086	0.000085
1685	1.6756e+02	-6.4539	-115.246095	0.000831	8.310485	1.407834	0.000166
1686	1.6766e+02	-6.4346	-115.129018	0.000588	5.878148	0.995785	0.000118
1687	1.6776e+02	-6.4137	-114.991756	0.000689	6.891622	1.167472	0.000138
1688	1.6786e+02	-6.3946	-114.866605	0.000628	6.283537	1.064460	0.000126
1689	1.6796e+02	-6.3739	-114.765676	0.000507	5.067369	0.858436	0.000101
1690	1.6806e+02	-6.3538	-114.608228	0.000791	7.905095	1.339159	0.000158
1691	1.6816e+02	-6.3344	-114.479040	0.000649	6.486232	1.098797	0.000130
1692	1.6825e+02	-6.3145	-114.349851	0.000649	6.486232	1.098797	0.000130
1693	1.6835e+02	-6.2951	-114.261034	0.000446	4.459285	0.755423	0.000089
1694	1.6845e+02	-6.2750	-114.115697	0.000730	7.297011	1.236147	0.000146
1695	1.6855e+02	-6.2546	-113.974398	0.000709	7.094316	1.201810	0.000142
1696	1.6865e+02	-6.2349	-113.881543	0.000466	4.661979	0.789761	0.000093
1697	1.6875e+02	-6.2119	-113.744281	0.000689	6.891622	1.167472	0.000138
1698	1.6885e+02	-6.1959	-113.586833	0.000791	7.905095	1.339159	0.000158
1699	1.6895e+02	-6.1758	-113.473793	0.000568	5.675453	0.961448	0.000114
1700	1.6905e+02	-6.1556	-113.332493	0.000709	7.094316	1.201810	0.000142
1701	1.6915e+02	-6.1355	-113.235602	0.000486	4.864674	0.824098	0.000097
1702	1.6925e+02	-6.1160	-113.090265	0.000730	7.297011	1.236147	0.000146
1703	1.6935e+02	-6.0956	-112.953002	0.000689	6.891622	1.167472	0.000138
1704	1.6945e+02	-6.0754	-112.799591	0.000770	7.702401	1.304822	0.000154
1705	1.6955e+02	-6.0550	-112.674440	0.000628	6.283537	1.064460	0.000126
1706	1.6965e+02	-6.0358	-112.561400	0.000568	5.675453	0.961448	0.000114
1707	1.6975e+02	-6.0162	-112.407989	0.000770	7.702401	1.304822	0.000154
1708	1.6985e+02	-5.9961	-112.278801	0.000649	6.486232	1.098797	0.000130
1709	1.6995e+02	-5.9763	-112.125389	0.000770	7.702401	1.304822	0.000154
1710	1.7005e+02	-5.9576	-112.012350	0.000568	5.675453	0.961448	0.000114
1711	1.7015e+02	-5.9354	-111.879124	0.000669	6.688927	1.133135	0.000134
1712	1.7024e+02	-5.9164	-111.709564	0.000851	8.513180	1.442172	0.000170
1713	1.7034e+02	-5.8958	-111.580376	0.000649	6.486232	1.098797	0.000130
1714	1.7044e+02	-5.8765	-111.447151	0.000669	6.688927	1.133135	0.000134
1715	1.7054e+02	-5.8568	-111.305851	0.000709	7.094316	1.201810	0.000142
1716	1.7064e+02	-5.8376	-111.156477	0.000750	7.499706	1.270485	0.000150
1717	1.7074e+02	-5.8170	-111.063623	0.000466	4.661979	0.789761	0.000093
1718	1.7084e+02	-5.7973	-110.898100	0.000831	8.310485	1.407834	0.000166
1719	1.7094e+02	-5.7773	-110.752763	0.000730	7.297011	1.236147	0.000146
1720	1.7104e+02	-5.7591	-110.667983	0.000426	4.256590	0.721086	0.000085
1721	1.7114e+02	-5.7368	-110.494387	0.000872	8.715875	1.476509	0.000174
1722	1.7124e+02	-5.7156	-110.324827	0.000851	8.513180	1.442172	0.000170
1723	1.7134e+02	-5.6955	-110.183527	0.000709	7.094316	1.201810	0.000142
1724	1.7144e+02	-5.6772	-110.086636	0.000486	4.864674	0.824098	0.000097
1725	1.7154e+02	-5.6575	-109.929188	0.000791	7.905095	1.339159	0.000158
1726	1.7164e+02	-5.6369	-109.779814	0.000750	7.499706	1.270485	0.000150
1727	1.7174e+02	-5.6176	-109.630440	0.000750	7.499706	1.270485	0.000150
1728	1.7184e+02	-5.5972	-109.485103	0.000730	7.297011	1.236147	0.000146
1729	1.7194e+02	-5.5772	-109.355914	0.000649	6.486232	1.098797	0.000130
1730	1.7204e+02	-5.5577	-109.202503	0.000770	7.702401	1.304822	0.000154
1731	1.7213e+02	-5.5379	-109.069278	0.000669	6.688927	1.133135	0.000134
1732	1.7223e+02	-5.5177	-108.883569	0.000932	9.323959	1.579521	0.000187
1733	1.7233e+02	-5.4985	-108.766492	0.000588	5.878148	0.995785	0.000118
1734	1.7243e+02	-5.4785	-108.629230	0.000689	6.891622	1.167472	0.000138
1735	1.7253e+02	-5.4585	-108.455633	0.000872	8.715875	1.476509	0.000174
1736	1.7263e+02	-5.4385	-108.358742	0.000486	4.864674	0.824098	0.000097
1737	1.7273e+02	-5.4175	-108.181108	0.000892	8.918569	1.510847	0.000179
1738	1.7283e+02	-5.3989	-108.051919	0.000649	6.486232	1.098797	0.000130
1739	1.7293e+02	-5.3782	-107.902545	0.000750	7.499706	1.270485	0.000150
1740	1.7303e+02	-5.3587	-107.753171	0.000750	7.499706	1.270485	0.000150
1741	1.7313e+02	-5.3379	-107.603797	0.000750	7.499706	1.270485	0.000150
1742	1.7323e+02	-5.3197	-107.442312	0.000811	8.107790	1.373497	0.000162
1743	1.7333e+02	-5.2991	-107.268715	0.000872	8.715875	1.476509	0.000174
1744	1.7343e+02	-5.2786	-107.135490	0.000669	6.688927	1.133135	0.000134
1745	1.7353e+02	-5.2587	-106.957856	0.000892	8.918569	1.510847	0.000179
1746	1.7363e+02	-5.2397	-106.816556	0.000709	7.094316	1.201810	0.000142
1747	1.7373e+02	-5.2181	-106.691405	0.000628	6.283537	1.064460	0.000126
1748	1.7383e+02	-5.1996	-106.529919	0.000811	8.107790	1.373497	0.000162
1749	1.7393e+02	-5.1791	-106.416879	0.000568	5.675453	0.961448	0.000114
1750	1.7403e+02	-5.1585	-106.283654	0.000669	6.688927	1.133135	0.000134
1751	1.7413e+02	-5.1385	-106.110057	0.000872	8.715875	1.476509	0.000174
1752	1.7422e+02	-5.1190	-105.956646	0.000770	7.702401	1.304822	0.000154
1753	1.7432e+02	-5.0995	-105.819383	0.000689	6.891622	1.167472	0.000138
1754	1.7442e+02	-5.0788	-105.649824	0.000851	8.513180	1.442172	0.000170
1755	1.7452e+02	-5.0586	-105.516598	0.000669	6.688927	1.133135	0.000134
1756	1.7462e+02	-5.0399	-105.347039	0.000851	8.513180	1.442172	0.000170
1757	1.7472e+02	-5.0201	-105.197664	0.000750	7.499706	1.270485	0.000150
1758	1.7482e+02	-5.0002	-105.104810	0.000466	4.661979	0.789761	0.000093
1759	1.7492e+02	-4.9802	-104.935251	0.000851	8.513180	1.442172	0.000170
1760	1.7502e+02	-4.9608	-104.806062	0.000649	6.486232	1.098797	0.000130
1761	1.7512e+02	-4.9394	-104.624391	0.000912	9.121264	1.545184	0.000183
1762	1.7522e+02	-4.9209	-104.470980	0.000770	7.702401	1.304822	0.000154
1763	1.7532e+02	-4.9004	-104.329680	0.000709	7.094316	1.201810	0.000142
1764	1.7542e+02	-4.8804	-104.168195	0.000811	8.107790	1.373497	0.000162
1765	1.7552e+02	-4.8617	-104.018821	0.000750	7.499706	1.270485	0.000150
1766	1.7562e+02	-4.8402	-103.825038	0.000973	9.729348	1.648196	0.000195
1767	1.7572e+02	-4.8212	-103.716036	0.000547	5.472758	0.927110	0.000110
1768	1.7582e+02	-4.8004	-103.542439	0.000872	8.715875	1.476509	0.000174
1769	1.7592e+02	-4.7803	-103.384991	0.000791	7.905095	1.339159	0.000158
1770	1.7602e+02	-4.7614	-103.195245	0.000953	9.526654	1.613859	0.000191
1771	1.7612e+02	-4.7407	-103.029723	0.000831	8.310485	1.407834	0.000166
1772	1.7621e+02	-4.7212	-102.872274	0.000791	7.905095	1.339159	0.000158
1773	1.7631e+02	-4.7008	-102.763272	0.000547	5.472758	0.927110	0.000110
1774	1.7641e+02	-4.6807	-102.630046	0.000669	6.688927	1.133135	0.000134
1775	1.7651e+02	-4.6611	-102.412041	0.001095	10.945517	1.854221	0.000219
1776	1.7661e+02	-4.6411	-102.278815	0.000669	6.688927	1.133135	0.000134
1777	1.7671e+02	-4.6214	-102.089070	0.000953	9.526654	1.613859	0.000191
1778	1.7681e+02	-4.6014	-101.911436	0.000892	8.918569	1.510847	0.000179
1779	1.7691e+02	-4.5815	-101.806470	0.000527	5.270064	0.892773	0.000105
1780	1.7701e+02	-4.5621	-101.604614	0.001013	10.134738	1.716871	0.000203
1781	1.7711e+02	-4.5413	-101.467351	0.000689	6.891622	1.167472	0.000138
1782	1.7721e+02	-4.5218	-101.293754	0.000872	8.715875	1.476509	0.000174
1783	1.7731e+02	-4.5022	-101.156492	0.000689	6.891622	1.167472	0.000138
1784	1.7741e+02	-4.4809	-101.003080	0.000770	7.702401	1.304822	0.000154
1785	1.7751e+02	-4.4611	-100.837558	0.000831	8.310485	1.407834	0.000166
1786	1.7761e+02	-4.4414	-100.651850	0.000932	9.323959	1.579521	0.000187
1787	1.7771e+02	-4.4214	-100.498438	0.000770	7.702401	1.304822	0.000154
1788	1.7781e+02	-4.4023	-100.353102	0.000730	7.297011	1.236147	0.000146
1789	1.7791e+02	-4.3821	-100.167393	0.000932	9.323959	1.579521	0.000187
1790	1.7801e+02	-4.3620	-100.038205	0.000649	6.486232	1.098797	0.000130
1791	1.7810e+02	-4.3430	-99.828274	0.001054	10.540127	1.785546	0.000211
1792	1.7820e+02	-4.3225	-99.678900	0.000750	7.499706	1.270485	0.000150
1793	1.7830e+02	-4.3011	-99.513377	0.000831	8.310485	1.407834	0.000166
1794	1.7840e+02	-4.2828	-99.368040	0.000730	7.297011	1.236147	0.000146
1795	1.7850e+02	-4.2628	-99.198481	0.000851	8.513180	1.442172	0.000170
1796	1.7860e+02	-4.2422	-99.012773	0.000932	9.323959	1.579521	0.000187
1797	1.7870e+02	-4.2229	-98.814953	0.000993	9.932043	1.682534	0.000199
1798	1.7880e+02	-4.2027	-98.673653	0.000709	7.094316	1.201810	0.000142
1799	1.7890e+02	-4.1830	-98.508131	0.000831	8.310485	1.407834	0.000166
1800	1.7900e+02	-4.1631	-98.314348	0.000973	9.729348	1.648196	0.000195
1801	1.7910e+02	-4.1436	-98.205345	0.000547	5.472758	0.927110	0.000110
1802	1.7920e+02	-4.1240	-97.999451	0.001034	10.337433	1.751208	0.000207
1803	1.7930e+02	-4.1040	-97.842003	0.000791	7.905095	1.339159	0.000158
1804	1.7940e+02	-4.0829	-97.619961	0.001115	11.148212	1.888558	0.000223
1805	1.7950e+02	-4.0636	-97.470587	0.000750	7.499706	1.270485	0.000150
1806	1.7960e+02	-4.0430	-97.305064	0.000831	8.310485	1.407834	0.000166
1807	1.7970e+02	-4.0233	-97.135504	0.000851	8.513180	1.442172	0.000170
1808	1.7980e+02	-4.0039	-96.974019	0.000811	8.107790	1.373497	0.000162
1809	1.7990e+02	-3.9831	-96.800422	0.000872	8.715875	1.476509	0.000174
1810	1.8000e+02	-3.9639	-96.663160	0.000689	6.891622	1.167472	0.000138
1811	1.8009e+02	-3.9433	-96.473414	0.000953	9.526654	1.613859	0.000191
1812	1.8019e+02	-3.9233	-96.295780	0.000892	8.918569	1.510847	0.000179
1813	1.8029e+02	-3.9035	-96.101998	0.000973	9.729348	1.648196	0.000195
1814	1.8039e+02	-3.8844	-95.956661	0.000730	7.297011	1.236147	0.000146
1815	1.8049e+02	-3.8647	-95.754804	0.001013	10.134738	1.716871	0.000203
1816	1.8059e+02	-3.8442	-95.617541	0.000689	6.891622	1.167472	0.000138
1817	1.8069e+02	-3.8235	-95.439907	0.000892	8.918569	1.510847	0.000179
1818	1.8079e+02	-3.8042	-95.238051	0.001013	10.134738	1.716871	0.000203
1819	1.8089e+02	-3.7839	-95.040231	0.000993	9.932043	1.682534	0.000199
1820	1.8099e+02	-3.7646	-94.919117	0.000608	6.080843	1.030123	0.000122
1821	1.8109e+02	-3.7450	-94.753594	0.000831	8.310485	1.407834	0.000166
1822	1.8119e+02	-3.7244	-94.555775	0.000993	9.932043	1.682534	0.000199
1823	1.8129e+02	-3.7042	-94.357955	0.000993	9.932043	1.682534	0.000199
1824	1.8139e+02	-3.6863	-94.216655	0.000709	7.094316	1.201810	0.000142
1825	1.8149e+02	-3.6646	-94.039021	0.000892	8.918569	1.510847	0.000179
1826	1.8159e+02	-3.6449	-93.877536	0.000811	8.107790	1.373497	0.000162
1827	1.8169e+02	-3.6246	-93.671642	0.001034	10.337433	1.751208	0.000207
1828	1.8179e+02	-3.6057	-93.522268	0.000750	7.499706	1.270485	0.000150
1829	1.8189e+02	-3.5851	-93.356745	0.000831	8.310485	1.407834	0.000166
1830	1.8199e+02	-3.5654	-93.134703	0.001115	11.148212	1.888558	0.000223
1831	1.8209e+02	-3.5458	-92.948995	0.000932	9.323959	1.579521	0.000187
1832	1.8218e+02	-3.5247	-92.791546	0.000791	7.905095	1.339159	0.000158
1833	1.8228e+02	-3.5061	-92.581615	0.001054	10.540127	1.785546	0.000211
1834	1.8238e+02	-3.4859	-92.383796	0.000993	9.932043	1.682534	0.000199
1835	1.8248e+02	-3.4653	-92.250570	0.000669	6.688927	1.133135	0.000134
1836	1.8258e+02	-3.4457	-92.068899	0.000912	9.121264	1.545184	0.000183
1837	1.8268e+02	-3.4253	-91.858968	0.001054	10.540127	1.785546	0.000211
1838	1.8278e+02	-3.4054	-91.649037	0.001054	10.540127	1.785546	0.000211
1839	1.8288e+02	-3.3861	-91.507737	0.000709	7.094316	1.201810	0.000142
1840	1.8298e+02	-3.3658	-91.309918	0.000993	9.932043	1.682534	0.000199
1841	1.8308e+02	-3.3457	-91.148432	0.000811	8.107790	1.373497	0.000162
1842	1.8318e+02	-3.3260	-90.962724	0.000932	9.323959	1.579521	0.000187
1843	1.8328e+02	-3.3066	-90.736644	0.001135	11.350906	1.922896	0.000227
1844	1.8338e+02	-3.2870	-90.554973	0.000912	9.121264	1.545184	0.000183
1845	1.8348e+02	-3.2666	-90.369265	0.000932	9.323959	1.579521	0.000187
1846	1.8358e+02	-3.2471	-90.195668	0.000872	8.715875	1.476509	0.000174
1847	1.8368e+02	-3.2271	-90.018034	0.000892	8.918569	1.510847	0.000179
1848	1.8378e+02	-3.2066	-89.800029	0.001095	10.945517	1.854221	0.000219
1849	1.8388e+02	-3.1855	-89.642580	0.000791	7.905095	1.339159	0.000158
1850	1.8398e+02	-3.1668	-89.436687	0.001034	10.337433	1.751208	0.000207
1851	1.8407e+02	-3.1474	-89.291350	0.000730	7.297011	1.236147	0.000146
1852	1.8417e+02	-3.1266	-89.061233	0.001155	11.553601	1.957233	0.000231
1853	1.8427e+02	-3.1065	-88.887636	0.000872	8.715875	1.476509	0.000174
1854	1.8437e+02	-3.0865	-88.697891	0.000953	9.526654	1.613859	0.000191
1855	1.8447e+02	-3.0671	-88.500071	0.000993	9.932043	1.682534	0.000199
1856	1.8457e+02	-3.0484	-88.366846	0.000669	6.688927	1.133135	0.000134
1857	1.8467e+02	-3.0264	-88.104432	0.001318	13.175159	2.231932	0.000264
1858	1.8477e+02	-3.0066	-87.934872	0.000851	8.513180	1.442172	0.000170
1859	1.8487e+02	-2.9871	-87.765312	0.000851	8.513180	1.442172	0.000170
1860	1.8497e+02	-2.9675	-87.591716	0.000872	8.715875	1.476509	0.000174
1861	1.8507e+02	-2.9479	-87.385822	0.001034	10.337433	1.751208	0.000207
1862	1.8517e+02	-2.9281	-87.155705	0.001155	11.553601	1.957233	0.000231
1863	1.8527e+02	-2.9077	-86.990182	0.000831	8.310485	1.407834	0.000166
1864	1.8537e+02	-2.8879	-86.808511	0.000912	9.121264	1.545184	0.000183
1865	1.8547e+02	-2.8684	-86.626840	0.000912	9.121264	1.545184	0.000183
1866	1.8557e+02	-2.8482	-86.408835	0.001095	10.945517	1.854221	0.000219
1867	1.8567e+02	-2.8285	-86.231201	0.000892	8.918569	1.510847	0.000179
1868	1.8577e+02	-2.8094	-86.041455	0.000953	9.526654	1.613859	0.000191
1869	1.8587e+02	-2.7882	-85.875933	0.000831	8.310485	1.407834	0.000166
1870	1.8597e+02	-2.7674	-85.661965	0.001074	10.742822	1.819883	0.000215
1871	1.8606e+02	-2.7477	-85.472219	0.000953	9.526654	1.613859	0.000191
1872	1.8616e+02	-2.7290	-85.258251	0.001074	10.742822	1.819883	0.000215
1873	1.8626e+02	-2.7087	-85.040246	0.001095	10.945517	1.854221	0.000219
1874	1.8636e+02	-2.6889	-84.878760	0.000811	8.107790	1.373497	0.000162
1875	1.8646e+02	-2.6692	-84.680941	0.000993	9.932043	1.682534	0.000199
1876	1.8656e+02	-2.6483	-84.479084	0.001013	10.134738	1.716871	0.000203
1877	1.8666e+02	-2.6287	-84.313561	0.000831	8.310485	1.407834	0.000166
1878	1.8676e+02	-2.6080	-84.079407	0.001176	11.756296	1.991570	0.000235
1879	1.8686e+02	-2.5894	-83.917922	0.000811	8.107790	1.373497	0.000162
1880	1.8696e+02	-2.5692	-83.695880	0.001115	11.148212	1.888558	0.000223
1881	1.8706e+02	-2.5494	-83.546506	0.000750	7.499706	1.270485	0.000150
1882	1.8716e+02	-2.5285	-83.328500	0.001095	10.945517	1.854221	0.000219
1883	1.8726e+02	-2.5095	-83.110495	0.001095	10.945517	1.854221	0.000219
1884	1.8736e+02	-2.4905	-82.949009	0.000811	8.107790	1.373497	0.000162
1885	1.8746e+02	-2.4693	-82.755227	0.000973	9.729348	1.648196	0.000195
1886	1.8756e+02	-2.4496	-82.577593	0.000892	8.918569	1.510847	0.000179
1887	1.8766e+02	-2.4310	-82.339402	0.001196	11.958991	2.025908	0.000239
1888	1.8776e+02	-2.4110	-82.129471	0.001054	10.540127	1.785546	0.000211
1889	1.8786e+02	-2.3901	-82.008357	0.000608	6.080843	1.030123	0.000122
1890	1.8796e+02	-2.3706	-81.733832	0.001378	13.783243	2.334945	0.000276
1891	1.8806e+02	-2.3503	-81.540049	0.000973	9.729348	1.648196	0.000195
1892	1.8815e+02	-2.3306	-81.394712	0.000730	7.297011	1.236147	0.000146
1893	1.8825e+02	-2.3102	-81.144410	0.001257	12.567075	2.128920	0.000252
1894	1.8835e+02	-2.2916	-80.946590	0.000993	9.932043	1.682534	0.000199
1895	1.8845e+02	-2.2714	-80.768956	0.000892	8.918569	1.510847	0.000179
1896	1.8855e+02	-2.2513	-80.538839	0.001155	11.553601	1.957233	0.000231
1897	1.8865e+02	-2.2306	-80.324871	0.001074	10.742822	1.819883	0.000215
1898	1.8875e+02	-2.2102	-80.123014	0.001013	10.134738	1.716871	0.000203
1899	1.8885e+02	-2.1916	-79.941343	0.000912	9.121264	1.545184	0.000183
1900	1.8895e+02	-2.1713	-79.731412	0.001054	10.540127	1.785546	0.000211
1901	1.8905e+02	-2.1506	-79.505333	0.001135	11.350906	1.922896	0.000227
1902	1.8915e+02	-2.1317	-79.335773	0.000851	8.513180	1.442172	0.000170
1903	1.8925e+02	-2.1117	-79.125842	0.001054	10.540127	1.785546	0.000211
1904	1.8935e+02	-2.0908	-78.915911	0.001054	10.540127	1.785546	0.000211
1905	1.8945e+02	-2.0718	-78.734240	0.000912	9.121264	1.545184	0.000183
1906	1.8955e+02	-2.0520	-78.463752	0.001358	13.580549	2.300607	0.000272
1907	1.8965e+02	-2.0322	-78.310340	0.000770	7.702401	1.304822	0.000154
1908	1.8975e+02	-2.0111	-78.064075	0.001236	12.364380	2.094583	0.000248
1909	1.8985e+02	-1.9919	-77.902590	0.000811	8.107790	1.373497	0.000162
1910	1.8995e+02	-1.9714	-77.684584	0.001095	10.945517	1.854221	0.000219
1911	1.9004e+02	-1.9519	-77.470616	0.001074	10.742822	1.819883	0.000215
1912	1.9014e+02	-1.9326	-77.256648	0.001074	10.742822	1.819883	0.000215
1913	1.9024e+02	-1.9112	-77.054791	0.001013	10.134738	1.716871	0.000203
1914	1.9034e+02	-1.8922	-76.901380	0.000770	7.702401	1.304822	0.000154
1915	1.9044e+02	-1.8723	-76.663189	0.001196	11.958991	2.025908	0.000239
1916	1.9054e+02	-1.8521	-76.449221	0.001074	10.742822	1.819883	0.000215
1917	1.9064e+02	-1.8310	-76.267550	0.000912	9.121264	1.545184	0.000183
1918	1.9074e+02	-1.8121	-76.025322	0.001216	12.161685	2.060245	0.000243
1919	1.9084e+02	-1.7925	-75.835576	0.000953	9.526654	1.613859	0.000191
1920	1.9094e+02	-1.7735	-75.625645	0.001054	10.540127	1.785546	0.000211
1921	1.9104e+02	-1.7523	-75.395528	0.001155	11.553601	1.957233	0.000231
1922	1.9114e+02	-1.7339	-75.238080	0.000791	7.905095	1.339159	0.000158
1923	1.9124e+02	-1.7124	-74.991815	0.001236	12.364380	2.094583	0.000248
1924	1.9134e+02	-1.6928	-74.834367	0.000791	7.905095	1.339159	0.000158
1925	1.9144e+02	-1.6735	-74.600213	0.001176	11.756296	1.991570	0.000235
1926	1.9154e+02	-1.6528	-74.406430	0.000973	9.729348	1.648196	0.000195
1927	1.9164e+02	-1.6331	-74.192462	0.001074	10.742822	1.819883	0.000215
1928	1.9174e+02	-1.6137	-73.954271	0.001196	11.958991	2.025908	0.000239
1929	1.9184e+02	-1.5927	-73.780674	0.000872	8.715875	1.476509	0.000174
1930	1.9194e+02	-1.5745	-73.590929	0.000953	9.526654	1.613859	0.000191
1931	1.9203e+02	-1.5531	-73.360812	0.001155	11.553601	1.957233	0.000231
1932	1.9213e+02	-1.5338	-73.106473	0.001277	12.769770	2.163258	0.000256
1933	1.9223e+02	-1.5137	-72.953061	0.000770	7.702401	1.304822	0.000154
1934	1.9233e+02	-1.4929	-72.694685	0.001297	12.972464	2.197595	0.000260
1935	1.9243e+02	-1.4738	-72.508976	0.000932	9.323959	1.579521	0.000187
1936	1.9253e+02	-1.4539	-72.307120	0.001013	10.134738	1.716871	0.000203
1937	1.9263e+02	-1.4331	-72.072966	0.001176	11.756296	1.991570	0.000235
1938	1.9273e+02	-1.4130	-71.891295	0.000912	9.121264	1.545184	0.000183
1939	1.9283e+02	-1.3938	-71.653104	0.001196	11.958991	2.025908	0.000239
1940	1.9293e+02	-1.3742	-71.459321	0.000973	9.729348	1.648196	0.000195
1941	1.9303e+02	-1.3543	-71.281687	0.000892	8.918569	1.510847	0.000179
1942	1.9313e+02	-1.3342	-71.023310	0.001297	12.972464	2.197595	0.000260
1943	1.9323e+02	-1.3146	-70.785119	0.001196	11.958991	2.025908	0.000239
1944	1.9333e+02	-1.2944	-70.571151	0.001074	10.742822	1.819883	0.000215
1945	1.9343e+02	-1.2750	-70.413703	0.000791	7.905095	1.339159	0.000158
1946	1.9353e+02	-1.2543	-70.195698	0.001095	10.945517	1.854221	0.000219
1947	1.9363e+02	-1.2344	-69.929247	0.001338	13.377854	2.266270	0.000268
1948	1.9373e+02	-1.2152	-69.739501	0.000953	9.526654	1.613859	0.000191
1949	1.9383e+02	-1.1939	-69.517459	0.001115	11.148212	1.888558	0.000223
1950	1.9393e+02	-1.1752	-69.360011	0.000791	7.905095	1.339159	0.000158
1951	1.9403e+02	-1.1556	-69.125857	0.001176	11.756296	1.991570	0.000235
1952	1.9412e+02	-1.1356	-68.911888	0.001074	10.742822	1.819883	0.000215
1953	1.9422e+02	-1.1145	-68.673697	0.001196	11.958991	2.025908	0.000239
1954	1.9432e+02	-1.0951	-68.443581	0.001155	11.553601	1.957233	0.000231
1955	1.9442e+02	-1.0751	-68.213464	0.001155	11.553601	1.957233	0.000231
1956	1.9452e+02	-1.0559	-67.995459	0.001095	10.945517	1.854221	0.000219
1957	1.9462e+02	-1.0358	-67.781490	0.001074	10.742822	1.819883	0.000215
1958	1.9472e+02	-1.0153	-67.559448	0.001115	11.148212	1.888558	0.000223
1959	1.9482e+02	-0.9959	-67.349517	0.001054	10.540127	1.785546	0.000211
1960	1.9492e+02	-0.9760	-67.135549	0.001074	10.742822	1.819883	0.000215
1961	1.9502e+02	-0.9554	-66.953878	0.000912	9.121264	1.545184	0.000183
1962	1.9512e+02	-0.9355	-66.691464	0.001318	13.175159	2.231932	0.000264
1963	1.9522e+02	-0.9158	-66.469421	0.001115	11.148212	1.888558	0.000223
1964	1.9532e+02	-0.8963	-66.259490	0.001054	10.540127	1.785546	0.000211
1965	1.9542e+02	-0.8756	-66.053596	0.001034	10.337433	1.751208	0.000207
1966	1.9552e+02	-0.8563	-65.803294	0.001257	12.567075	2.128920	0.000252
1967	1.9562e+02	-0.8360	-65.597400	0.001034	10.337433	1.751208	0.000207
1968	1.9572e+02	-0.8167	-65.395543	0.001013	10.134738	1.716871	0.000203
1969	1.9582e+02	-0.7958	-65.145241	0.001257	12.567075	2.128920	0.000252
1970	1.9592e+02	-0.7771	-64.959533	0.000932	9.323959	1.579521	0.000187
1971	1.9601e+02	-0.7557	-64.713267	0.001236	12.364380	2.094583	0.000248
1972	1.9611e+02	-0.7369	-64.503336	0.001054	10.540127	1.785546	0.000211
1973	1.9621e+02	-0.7162	-64.285331	0.001095	10.945517	1.854221	0.000219
1974	1.9631e+02	-0.6969	-64.010806	0.001378	13.783243	2.334945	0.000276
1975	1.9641e+02	-0.6767	-63.812986	0.000993	9.932043	1.682534	0.000199
1976	1.9651e+02	-0.6564	-63.615166	0.000993	9.932043	1.682534	0.000199
1977	1.9661e+02	-0.6373	-63.413310	0.001013	10.134738	1.716871	0.000203
1978	1.9671e+02	-0.6171	-63.126673	0.001439	14.391328	2.437957	0.000288
1979	1.9681e+02	-0.5970	-62.940965	0.000932	9.323959	1.579521	0.000187
1980	1.9691e+02	-0.5773	-62.710848	0.001155	11.553601	1.957233	0.000231
1981	1.9701e+02	-0.5576	-62.496880	0.001074	10.742822	1.819883	0.000215
1982	1.9711e+02	-0.5370	-62.262726	0.001176	11.756296	1.991570	0.000235
1983	1.9721e+02	-0.5170	-62.036646	0.001135	11.350906	1.922896	0.000227
1984	1.9731e+02	-0.4968	-61.842864	0.000973	9.729348	1.648196	0.000195
1985	1.9741e+02	-0.4771	-61.612747	0.001155	11.553601	1.957233	0.000231
1986	1.9751e+02	-0.4578	-61.394742	0.001095	10.945517	1.854221	0.000219
1987	1.9761e+02	-0.4375	-61.148476	0.001236	12.364380	2.094583	0.000248
1988	1.9771e+02	-0.4172	-60.950657	0.000993	9.932043	1.682534	0.000199
1989	1.9781e+02	-0.3978	-60.720540	0.001155	11.553601	1.957233	0.000231
1990	1.9791e+02	-0.3781	-60.482349	0.001196	11.958991	2.025908	0.000239
1991	1.9800e+02	-0.3576	-60.284529	0.000993	9.932043	1.682534	0.000199
1992	1.9810e+02	-0.3378	-60.050376	0.001176	11.756296	1.991570	0.000235
1993	1.9820e+02	-0.3193	-59.816222	0.001176	11.756296	1.991570	0.000235
1994	1.9830e+02	-0.2974	-59.642625	0.000872	8.715875	1.476509	0.000174
1995	1.9840e+02	-0.2782	-59.380211	0.001318	13.175159	2.231932	0.000264
1996	1.9850e+02	-0.2583	-59.194503	0.000932	9.323959	1.579521	0.000187
1997	1.9860e+02	-0.2393	-58.932089	0.001318	13.175159	2.231932	0.000264
1998	1.9870e+02	-0.2182	-58.669675	0.001318	13.175159	2.231932	0.000264
1999	1.9880e+02	-0.1981	-58.431484	0.001196	11.958991	2.025908	0.000239
2000	1.9890e+02	-0.1788	-58.233664	0.000993	9.932043	1.682534	0.000199
2001	1.9900e+02	-0.1581	-58.015659	0.001095	10.945517	1.854221	0.000219
2002	1.9910e+02	-0.1381	-57.745171	0.001358	13.580549	2.300607	0.000272
2003	1.9920e+02	-0.1185	-57.555426	0.000953	9.526654	1.613859	0.000191
2004	1.9930e+02	-0.0986	-57.293012	0.001318	13.175159	2.231932	0.000264
2005	1.9940e+02	-0.0791	-57.058858	0.001176	11.756296	1.991570	0.000235
2006	1.9950e+02	-0.0586	-56.877187	0.000912	9.121264	1.545184	0.000183
2007	1.9960e+02	-0.0384	-56.598624	0.001399	13.985938	2.369282	0.000280
2008	1.9970e+02	-0.0193	-56.404842	0.000973	9.729348	1.648196	0.000195
2009	1.9980e+02	0.0001	-56.186837	0.000973	9.729348	1.648196	0.000219

PMax (uC/cm2):	9.44e+01
Pr (uC/cm2):	1.14e+01
-Pr (uC/cm2):	-8.52e+01
PLoss (uC/cm2):	-8.53e+01
-Vc:	-1.01e+00
C (Max-Eff) (nF):	9.45e-01
K (Eff):	1.60e+03
Vert. (+/-Pr) Shift (uC/cm2):	-3.69e+01
Offset (uC/cm2):	-2.90e+01

A (Loop Area - uC/cm2·Volts):	-5.31e-01



Hysteresis Version: 5.48.1 - Radiant Technologies, Inc., 1999 - 9/12/24

