»»»»»»»»»»»»»»»»»»»»»»»»»»»»»»»»»»»» Hysteresis ««««««««««««««««««««««««««««««««««««
»»»  Executed Version:	5.48.1
»»»  Vision Version:	5.48.4 (R)
»»»  Vision Compiled:	9/18/24
»»»  Driver Version:	5.47.0
»»»  Windows Version:	Windows 8 or 8.1
»»»  Processor Information:	x86 (AMD or Intel) - 32 Processors
»»»  Tester Name:	PMF21124-494 (100V)
»»»  Tester S/N:	PMF21124-494
»»»  Internal Amp Type:	100V RevK 270k
»»»  Internal Amp S/N:	iAB2-596/K     
»»»  Execution Count:	1
»»»»»»»»»»»»»»»»»»»»»»»»»»»»»»»»»»»»»»»»»»««««««««««««««««««««««««««««««««««««««««««

Stored:	7/1/2025 - 14:44:59
Configured:	07/01/25 10:49:51 AM
Executed:	07/01/25 02:44:25 PM

»»»»»»»»»»»»»»»»»»»»»»»»»»»»»»»»»»» Sample Info ««««««««««««««««««««««««««««««««««««
Sample Name:	
Lot Name:	
Wafer Name:	
Die Row/Column:	0/0
Capacitor Number:	0
Sample Area (cm2):	1.00e-04
Sample Thickness (microns):	1.50e-01

Amplifier:	Internal

»»»»»»»»»»»»»»»»»»»»»»»»»»»»»»»»»»» Tester Info «««««««««««««««««««««««««««««««««««
Tester Name:	PMF21124-494 (100V)
Tester Serial Number:	PMF21124-494
Return Signal Amp. Level:	0.19 [Index: 3]

»»»»»»»»»»»»»»»»»»»»»»»»»»»»»»»» Hysteresis Info ««««««««««««««««««««««««««««««««««
Task Name:	Hyst-22
Volts:	10.00
Field:	666.67 (kV/cm)
DCBias:	0.00
DCField:	0.00 (kV/cm)
Hysteresis Period (ms):	2.00e+02
Preset:	Enabled
Preset Delay (ms):	1.00e+03
Profile:	Standard Bipolar

»»»»»»»»»»»»»»»»»»»»»»»»»»»»»»»»»»»»»» Data «««««««««««««««««««««««««««««««««««««««
Points:	2009

Valid Data

Point	Time (ms)	Drive Voltage	Measured Polarization (uC/cm2)	Capacitance (uF)	Normalized Capacitance (uF/cm2)	Dielectric Constant	Instantaneous Current (mA)
   1	0.0000e+00	0.0001	17.716970	0.000831	8.310105	1.407770	0.000166
   2	9.9500e-02	0.0189	17.882493	0.000831	8.310105	1.407770	0.000166
   3	1.9900e-01	0.0385	18.088387	0.001034	10.336959	1.751128	0.000207
   4	2.9850e-01	0.0591	18.221612	0.000669	6.688621	1.133083	0.000134
   5	3.9800e-01	0.0806	18.411358	0.000953	9.526217	1.613785	0.000191
   6	4.9750e-01	0.0993	18.572843	0.000811	8.107419	1.373434	0.000162
   7	5.9700e-01	0.1191	18.758551	0.000932	9.323532	1.579449	0.000187
   8	6.9650e-01	0.1395	18.936185	0.000892	8.918161	1.510777	0.000179
   9	7.9600e-01	0.1587	19.121893	0.000932	9.323532	1.579449	0.000187
  10	8.9550e-01	0.1785	19.299527	0.000892	8.918161	1.510777	0.000179
  11	9.9500e-01	0.1982	19.465050	0.000831	8.310105	1.407770	0.000166
  12	1.0945e+00	0.2185	19.654795	0.000953	9.526217	1.613785	0.000191
  13	1.1940e+00	0.2386	19.824355	0.000851	8.512790	1.442106	0.000170
  14	1.2935e+00	0.2586	20.006026	0.000912	9.120846	1.545113	0.000183
  15	1.3930e+00	0.2784	20.195772	0.000953	9.526217	1.613785	0.000191
  16	1.4925e+00	0.2976	20.353220	0.000790	7.904734	1.339098	0.000158
  17	1.5920e+00	0.3177	20.575262	0.001115	11.147701	1.888472	0.000223
  18	1.6915e+00	0.3379	20.740785	0.000831	8.310105	1.407770	0.000166
  19	1.7910e+00	0.3577	20.894196	0.000770	7.702048	1.304762	0.000154
  20	1.8905e+00	0.3780	21.092016	0.000993	9.931588	1.682457	0.000199
  21	1.9900e+00	0.3971	21.249464	0.000790	7.904734	1.339098	0.000158
  22	2.0895e+00	0.4179	21.443246	0.000973	9.728903	1.648121	0.000195
  23	2.1890e+00	0.4375	21.608769	0.000831	8.310105	1.407770	0.000166
  24	2.2885e+00	0.4576	21.810626	0.001013	10.134274	1.716792	0.000203
  25	2.3880e+00	0.4787	21.976148	0.000831	8.310105	1.407770	0.000166
  26	2.4875e+00	0.4972	22.161857	0.000932	9.323532	1.579449	0.000187
  27	2.5870e+00	0.5159	22.323342	0.000811	8.107419	1.373434	0.000162
  28	2.6865e+00	0.5382	22.484827	0.000811	8.107419	1.373434	0.000162
  29	2.7860e+00	0.5577	22.690721	0.001034	10.336959	1.751128	0.000207
  30	2.8855e+00	0.5782	22.880467	0.000953	9.526217	1.613785	0.000191
  31	2.9850e+00	0.5961	23.054064	0.000872	8.715475	1.476442	0.000174
  32	3.0845e+00	0.6170	23.268032	0.001074	10.742330	1.819800	0.000215
  33	3.1840e+00	0.6362	23.453740	0.000932	9.323532	1.579449	0.000187
  34	3.2835e+00	0.6564	23.631374	0.000892	8.918161	1.510777	0.000179
  35	3.3830e+00	0.6770	23.788822	0.000790	7.904734	1.339098	0.000158
  36	3.4825e+00	0.6968	23.962419	0.000872	8.715475	1.476442	0.000174
  37	3.5820e+00	0.7162	24.156202	0.000973	9.728903	1.648121	0.000195
  38	3.6815e+00	0.7375	24.349984	0.000973	9.728903	1.648121	0.000195
  39	3.7810e+00	0.7562	24.543767	0.000973	9.728903	1.648121	0.000195
  40	3.8805e+00	0.7759	24.717364	0.000872	8.715475	1.476442	0.000174
  41	3.9800e+00	0.7962	24.903072	0.000932	9.323532	1.579449	0.000187
  42	4.0795e+00	0.8154	25.064557	0.000811	8.107419	1.373434	0.000162
  43	4.1790e+00	0.8369	25.298711	0.001176	11.755758	1.991479	0.000235
  44	4.2785e+00	0.8564	25.464234	0.000831	8.310105	1.407770	0.000166
  45	4.3780e+00	0.8761	25.653979	0.000953	9.526217	1.613785	0.000191
  46	4.4775e+00	0.8955	25.863910	0.001054	10.539645	1.785464	0.000211
  47	4.5770e+00	0.9159	26.009247	0.000730	7.296677	1.236091	0.000146
  48	4.6765e+00	0.9350	26.219178	0.001054	10.539645	1.785464	0.000211
  49	4.7760e+00	0.9566	26.396812	0.000892	8.918161	1.510777	0.000179
  50	4.8755e+00	0.9765	26.574446	0.000892	8.918161	1.510777	0.000179
  51	4.9750e+00	0.9965	26.768229	0.000973	9.728903	1.648121	0.000195
  52	5.0745e+00	1.0153	26.966048	0.000993	9.931588	1.682457	0.000199
  53	5.1740e+00	1.0354	27.151756	0.000932	9.323532	1.579449	0.000187
  54	5.2735e+00	1.0555	27.353613	0.001013	10.134274	1.716792	0.000203
  55	5.3730e+00	1.0756	27.543359	0.000953	9.526217	1.613785	0.000191
  56	5.4725e+00	1.0941	27.733104	0.000953	9.526217	1.613785	0.000191
  57	5.5720e+00	1.1157	27.918812	0.000932	9.323532	1.579449	0.000187
  58	5.6715e+00	1.1349	28.096446	0.000892	8.918161	1.510777	0.000179
  59	5.7710e+00	1.1552	28.302340	0.001034	10.336959	1.751128	0.000207
  60	5.8705e+00	1.1747	28.463826	0.000811	8.107419	1.373434	0.000162
  61	5.9700e+00	1.1955	28.673757	0.001054	10.539645	1.785464	0.000211
  62	6.0695e+00	1.2148	28.879651	0.001034	10.336959	1.751128	0.000207
  63	6.1690e+00	1.2346	29.085544	0.001034	10.336959	1.751128	0.000207
  64	6.2685e+00	1.2544	29.230881	0.000730	7.296677	1.236091	0.000146
  65	6.3680e+00	1.2748	29.452924	0.001115	11.147701	1.888472	0.000223
  66	6.4675e+00	1.2940	29.598261	0.000730	7.296677	1.236091	0.000146
  67	6.5670e+00	1.3124	29.796080	0.000993	9.931588	1.682457	0.000199
  68	6.6665e+00	1.3340	30.006011	0.001054	10.539645	1.785464	0.000211
  69	6.7660e+00	1.3538	30.224017	0.001095	10.945016	1.854136	0.000219
  70	6.8655e+00	1.3728	30.401651	0.000892	8.918161	1.510777	0.000179
  71	6.9650e+00	1.3929	30.563136	0.000811	8.107419	1.373434	0.000162
  72	7.0645e+00	1.4127	30.769030	0.001034	10.336959	1.751128	0.000207
  73	7.1640e+00	1.4341	30.966850	0.000993	9.931588	1.682457	0.000199
  74	7.2635e+00	1.4529	31.148521	0.000912	9.120846	1.545113	0.000183
  75	7.3630e+00	1.4733	31.386712	0.001196	11.958443	2.025815	0.000239
  76	7.4625e+00	1.4938	31.552234	0.000831	8.310105	1.407770	0.000166
  77	7.5620e+00	1.5128	31.725831	0.000872	8.715475	1.476442	0.000174
  78	7.6615e+00	1.5328	31.927688	0.001013	10.134274	1.716792	0.000203
  79	7.7610e+00	1.5524	32.137619	0.001054	10.539645	1.785464	0.000211
  80	7.8605e+00	1.5733	32.319290	0.000912	9.120846	1.545113	0.000183
  81	7.9600e+00	1.5932	32.509036	0.000953	9.526217	1.613785	0.000191
  82	8.0595e+00	1.6128	32.682632	0.000872	8.715475	1.476442	0.000174
  83	8.1590e+00	1.6319	32.872378	0.000953	9.526217	1.613785	0.000191
  84	8.2585e+00	1.6529	33.078272	0.001034	10.336959	1.751128	0.000207
  85	8.3580e+00	1.6729	33.259943	0.000912	9.120846	1.545113	0.000183
  86	8.4575e+00	1.6930	33.477948	0.001095	10.945016	1.854136	0.000219
  87	8.5570e+00	1.7127	33.651545	0.000872	8.715475	1.476442	0.000174
  88	8.6565e+00	1.7323	33.813030	0.000811	8.107419	1.373434	0.000162
  89	8.7560e+00	1.7525	34.047184	0.001176	11.755758	1.991479	0.000235
  90	8.8555e+00	1.7726	34.228855	0.000912	9.120846	1.545113	0.000183
  91	8.9550e+00	1.7924	34.475121	0.001236	12.363814	2.094487	0.000248
  92	9.0545e+00	1.8128	34.640643	0.000831	8.310105	1.407770	0.000166
  93	9.1540e+00	1.8326	34.858649	0.001095	10.945016	1.854136	0.000219
  94	9.2535e+00	1.8524	35.020134	0.000811	8.107419	1.373434	0.000162
  95	9.3530e+00	1.8724	35.213916	0.000973	9.728903	1.648121	0.000195
  96	9.4525e+00	1.8917	35.383476	0.000851	8.512790	1.442106	0.000170
  97	9.5520e+00	1.9118	35.589370	0.001034	10.336959	1.751128	0.000207
  98	9.6515e+00	1.9318	35.791227	0.001013	10.134274	1.716792	0.000203
  99	9.7510e+00	1.9517	35.997121	0.001034	10.336959	1.751128	0.000207
 100	9.8505e+00	1.9715	36.194940	0.000993	9.931588	1.682457	0.000199
 101	9.9500e+00	1.9909	36.372574	0.000892	8.918161	1.510777	0.000179
 102	1.0050e+01	2.0112	36.574431	0.001013	10.134274	1.716792	0.000203
 103	1.0149e+01	2.0307	36.743991	0.000851	8.512790	1.442106	0.000170
 104	1.0248e+01	2.0517	36.966033	0.001115	11.147701	1.888472	0.000223
 105	1.0348e+01	2.0713	37.163853	0.000993	9.931588	1.682457	0.000199
 106	1.0447e+01	2.0905	37.341487	0.000892	8.918161	1.510777	0.000179
 107	1.0547e+01	2.1107	37.551418	0.001054	10.539645	1.785464	0.000211
 108	1.0646e+01	2.1310	37.753275	0.001013	10.134274	1.716792	0.000203
 109	1.0746e+01	2.1516	37.947057	0.000973	9.728903	1.648121	0.000195
 110	1.0845e+01	2.1706	38.152951	0.001034	10.336959	1.751128	0.000207
 111	1.0945e+01	2.1901	38.346734	0.000973	9.728903	1.648121	0.000195
 112	1.1044e+01	2.2103	38.548591	0.001013	10.134274	1.716792	0.000203
 113	1.1144e+01	2.2292	38.722187	0.000872	8.715475	1.476442	0.000174
 114	1.1243e+01	2.2509	38.920007	0.000993	9.931588	1.682457	0.000199
 115	1.1343e+01	2.2710	39.109752	0.000953	9.526217	1.613785	0.000191
 116	1.1443e+01	2.2906	39.327758	0.001095	10.945016	1.854136	0.000219
 117	1.1542e+01	2.3103	39.497317	0.000851	8.512790	1.442106	0.000170
 118	1.1642e+01	2.3308	39.755694	0.001297	12.971871	2.197494	0.000260
 119	1.1741e+01	2.3501	39.949477	0.000973	9.728903	1.648121	0.000195
 120	1.1841e+01	2.3702	40.155371	0.001034	10.336959	1.751128	0.000207
 121	1.1940e+01	2.3892	40.288596	0.000669	6.688621	1.133083	0.000134
 122	1.2040e+01	2.4095	40.502564	0.001074	10.742330	1.819800	0.000215
 123	1.2139e+01	2.4300	40.672124	0.000851	8.512790	1.442106	0.000170
 124	1.2239e+01	2.4493	40.918389	0.001236	12.363814	2.094487	0.000248
 125	1.2338e+01	2.4700	41.112172	0.000973	9.728903	1.648121	0.000195
 126	1.2438e+01	2.4899	41.253472	0.000709	7.093992	1.201755	0.000142
 127	1.2537e+01	2.5100	41.447254	0.000973	9.728903	1.648121	0.000195
 128	1.2636e+01	2.5290	41.681408	0.001176	11.755758	1.991479	0.000235
 129	1.2736e+01	2.5503	41.891339	0.001054	10.539645	1.785464	0.000211
 130	1.2835e+01	2.5696	42.073010	0.000912	9.120846	1.545113	0.000183
 131	1.2935e+01	2.5890	42.286978	0.001074	10.742330	1.819800	0.000215
 132	1.3034e+01	2.6087	42.444427	0.000790	7.904734	1.339098	0.000158
 133	1.3134e+01	2.6292	42.654358	0.001054	10.539645	1.785464	0.000211
 134	1.3233e+01	2.6488	42.864289	0.001054	10.539645	1.785464	0.000211
 135	1.3333e+01	2.6683	43.037886	0.000872	8.715475	1.476442	0.000174
 136	1.3432e+01	2.6879	43.219557	0.000912	9.120846	1.545113	0.000183
 137	1.3532e+01	2.7093	43.401228	0.000912	9.120846	1.545113	0.000183
 138	1.3632e+01	2.7281	43.659604	0.001297	12.971871	2.197494	0.000260
 139	1.3731e+01	2.7477	43.784756	0.000628	6.283250	1.064411	0.000126
 140	1.3831e+01	2.7695	44.047169	0.001317	13.174556	2.231830	0.000264
 141	1.3930e+01	2.7872	44.196543	0.000750	7.499363	1.270426	0.000150
 142	1.4030e+01	2.8080	44.386289	0.000953	9.526217	1.613785	0.000191
 143	1.4129e+01	2.8279	44.559886	0.000872	8.715475	1.476442	0.000174
 144	1.4229e+01	2.8480	44.802114	0.001216	12.161129	2.060151	0.000243
 145	1.4328e+01	2.8683	44.987822	0.000932	9.323532	1.579449	0.000187
 146	1.4428e+01	2.8872	45.185642	0.000993	9.931588	1.682457	0.000199
 147	1.4527e+01	2.9068	45.383461	0.000993	9.931588	1.682457	0.000199
 148	1.4627e+01	2.9279	45.593392	0.001054	10.539645	1.785464	0.000211
 149	1.4726e+01	2.9478	45.746804	0.000770	7.702048	1.304762	0.000154
 150	1.4825e+01	2.9675	45.964809	0.001095	10.945016	1.854136	0.000219
 151	1.4925e+01	2.9872	46.146480	0.000912	9.120846	1.545113	0.000183
 152	1.5024e+01	3.0077	46.376597	0.001155	11.553072	1.957143	0.000231
 153	1.5124e+01	3.0284	46.546156	0.000851	8.512790	1.442106	0.000170
 154	1.5223e+01	3.0473	46.723790	0.000892	8.918161	1.510777	0.000179
 155	1.5323e+01	3.0676	46.945833	0.001115	11.147701	1.888472	0.000223
 156	1.5422e+01	3.0878	47.115393	0.000851	8.512790	1.442106	0.000170
 157	1.5522e+01	3.1079	47.313212	0.000993	9.931588	1.682457	0.000199
 158	1.5621e+01	3.1273	47.511032	0.000993	9.931588	1.682457	0.000199
 159	1.5721e+01	3.1467	47.708852	0.000993	9.931588	1.682457	0.000199
 160	1.5820e+01	3.1664	47.934931	0.001135	11.350387	1.922808	0.000227
 161	1.5920e+01	3.1860	48.112565	0.000892	8.918161	1.510777	0.000179
 162	1.6020e+01	3.2068	48.306348	0.000973	9.728903	1.648121	0.000195
 163	1.6119e+01	3.2265	48.467833	0.000811	8.107419	1.373434	0.000162
 164	1.6218e+01	3.2458	48.681801	0.001074	10.742330	1.819800	0.000215
 165	1.6318e+01	3.2661	48.887695	0.001034	10.336959	1.751128	0.000207
 166	1.6418e+01	3.2867	49.069366	0.000912	9.120846	1.545113	0.000183
 167	1.6517e+01	3.3051	49.238926	0.000851	8.512790	1.442106	0.000170
 168	1.6616e+01	3.3259	49.460968	0.001115	11.147701	1.888472	0.000223
 169	1.6716e+01	3.3464	49.634565	0.000872	8.715475	1.476442	0.000174
 170	1.6816e+01	3.3665	49.836422	0.001013	10.134274	1.716792	0.000203
 171	1.6915e+01	3.3874	50.034242	0.000993	9.931588	1.682457	0.000199
 172	1.7015e+01	3.4057	50.219950	0.000932	9.323532	1.579449	0.000187
 173	1.7114e+01	3.4248	50.425844	0.001034	10.336959	1.751128	0.000207
 174	1.7213e+01	3.4454	50.595404	0.000851	8.512790	1.442106	0.000170
 175	1.7313e+01	3.4662	50.801298	0.001034	10.336959	1.751128	0.000207
 176	1.7413e+01	3.4851	51.003154	0.001013	10.134274	1.716792	0.000203
 177	1.7512e+01	3.5061	51.168677	0.000831	8.310105	1.407770	0.000166
 178	1.7611e+01	3.5253	51.342274	0.000872	8.715475	1.476442	0.000174
 179	1.7711e+01	3.5445	51.527982	0.000932	9.323532	1.579449	0.000187
 180	1.7811e+01	3.5653	51.725802	0.000993	9.931588	1.682457	0.000199
 181	1.7910e+01	3.5844	51.931696	0.001034	10.336959	1.751128	0.000207
 182	1.8009e+01	3.6047	52.105292	0.000872	8.715475	1.476442	0.000174
 183	1.8109e+01	3.6256	52.270815	0.000831	8.310105	1.407770	0.000166
 184	1.8209e+01	3.6452	52.484783	0.001074	10.742330	1.819800	0.000215
 185	1.8308e+01	3.6657	52.654343	0.000851	8.512790	1.442106	0.000170
 186	1.8407e+01	3.6849	52.896571	0.001216	12.161129	2.060151	0.000243
 187	1.8507e+01	3.7045	53.062094	0.000831	8.310105	1.407770	0.000166
 188	1.8607e+01	3.7241	53.219542	0.000790	7.904734	1.339098	0.000158
 189	1.8706e+01	3.7441	53.393139	0.000872	8.715475	1.476442	0.000174
 190	1.8805e+01	3.7646	53.623255	0.001155	11.553072	1.957143	0.000231
 191	1.8905e+01	3.7838	53.772629	0.000750	7.499363	1.270426	0.000150
 192	1.9005e+01	3.8024	53.930078	0.000790	7.904734	1.339098	0.000158
 193	1.9104e+01	3.8245	54.135972	0.001034	10.336959	1.751128	0.000207
 194	1.9203e+01	3.8435	54.333791	0.000993	9.931588	1.682457	0.000199
 195	1.9303e+01	3.8637	54.515462	0.000912	9.120846	1.545113	0.000183
 196	1.9402e+01	3.8832	54.685022	0.000851	8.512790	1.442106	0.000170
 197	1.9502e+01	3.9037	54.854582	0.000851	8.512790	1.442106	0.000170
 198	1.9602e+01	3.9230	55.052401	0.000993	9.931588	1.682457	0.000199
 199	1.9701e+01	3.9436	55.217924	0.000831	8.310105	1.407770	0.000166
 200	1.9800e+01	3.9635	55.411707	0.000973	9.728903	1.648121	0.000195
 201	1.9900e+01	3.9835	55.609526	0.000993	9.931588	1.682457	0.000199
 202	2.0000e+01	4.0037	55.791197	0.000912	9.120846	1.545113	0.000183
 203	2.0099e+01	4.0231	55.964794	0.000872	8.715475	1.476442	0.000174
 204	2.0198e+01	4.0432	56.130317	0.000831	8.310105	1.407770	0.000166
 205	2.0298e+01	4.0630	56.320062	0.000953	9.526217	1.613785	0.000191
 206	2.0398e+01	4.0831	56.509807	0.000953	9.526217	1.613785	0.000191
 207	2.0497e+01	4.1018	56.695516	0.000932	9.323532	1.579449	0.000187
 208	2.0596e+01	4.1235	56.861038	0.000831	8.310105	1.407770	0.000166
 209	2.0696e+01	4.1431	57.050784	0.000953	9.526217	1.613785	0.000191
 210	2.0796e+01	4.1621	57.167861	0.000588	5.877879	0.995740	0.000118
 211	2.0895e+01	4.1821	57.369717	0.001013	10.134274	1.716792	0.000203
 212	2.0994e+01	4.2025	57.579648	0.001054	10.539645	1.785464	0.000211
 213	2.1094e+01	4.2221	57.745171	0.000831	8.310105	1.407770	0.000166
 214	2.1194e+01	4.2428	57.910694	0.000831	8.310105	1.407770	0.000166
 215	2.1293e+01	4.2629	58.104476	0.000973	9.728903	1.648121	0.000195
 216	2.1392e+01	4.2823	58.294221	0.000953	9.526217	1.613785	0.000191
 217	2.1492e+01	4.3026	58.415336	0.000608	6.080564	1.030075	0.000122
 218	2.1591e+01	4.3217	58.633341	0.001095	10.945016	1.854136	0.000219
 219	2.1691e+01	4.3421	58.810975	0.000892	8.918161	1.510777	0.000179
 220	2.1791e+01	4.3623	58.956312	0.000730	7.296677	1.236091	0.000146
 221	2.1890e+01	4.3818	59.158169	0.001013	10.134274	1.716792	0.000203
 222	2.1989e+01	4.4016	59.331765	0.000872	8.715475	1.476442	0.000174
 223	2.2089e+01	4.4223	59.473065	0.000709	7.093992	1.201755	0.000142
 224	2.2189e+01	4.4405	59.670885	0.000993	9.931588	1.682457	0.000199
 225	2.2288e+01	4.4629	59.836407	0.000831	8.310105	1.407770	0.000166
 226	2.2387e+01	4.4807	59.985781	0.000750	7.499363	1.270426	0.000150
 227	2.2487e+01	4.5019	60.232047	0.001236	12.363814	2.094487	0.000248
 228	2.2587e+01	4.5217	60.381421	0.000750	7.499363	1.270426	0.000150
 229	2.2686e+01	4.5415	60.514646	0.000669	6.688621	1.133083	0.000134
 230	2.2785e+01	4.5604	60.736689	0.001115	11.147701	1.888472	0.000223
 231	2.2885e+01	4.5809	60.882025	0.000730	7.296677	1.236091	0.000146
 232	2.2985e+01	4.6011	61.047548	0.000831	8.310105	1.407770	0.000166
 233	2.3084e+01	4.6209	61.261516	0.001074	10.742330	1.819800	0.000215
 234	2.3183e+01	4.6410	61.402816	0.000709	7.093992	1.201755	0.000142
 235	2.3283e+01	4.6613	61.568339	0.000831	8.310105	1.407770	0.000166
 236	2.3383e+01	4.6803	61.721750	0.000770	7.702048	1.304762	0.000154
 237	2.3482e+01	4.7015	61.915532	0.000973	9.728903	1.648121	0.000195
 238	2.3581e+01	4.7207	62.105278	0.000953	9.526217	1.613785	0.000191
 239	2.3681e+01	4.7405	62.226392	0.000608	6.080564	1.030075	0.000122
 240	2.3780e+01	4.7598	62.448434	0.001115	11.147701	1.888472	0.000223
 241	2.3880e+01	4.7807	62.589734	0.000709	7.093992	1.201755	0.000142
 242	2.3980e+01	4.7999	62.759294	0.000851	8.512790	1.442106	0.000170
 243	2.4079e+01	4.8206	62.928853	0.000851	8.512790	1.442106	0.000170
 244	2.4178e+01	4.8396	63.094376	0.000831	8.310105	1.407770	0.000166
 245	2.4278e+01	4.8600	63.267973	0.000872	8.715475	1.476442	0.000174
 246	2.4378e+01	4.8800	63.417347	0.000750	7.499363	1.270426	0.000150
 247	2.4477e+01	4.8997	63.594981	0.000892	8.918161	1.510777	0.000179
 248	2.4576e+01	4.9194	63.756466	0.000811	8.107419	1.373434	0.000162
 249	2.4676e+01	4.9398	63.909877	0.000770	7.702048	1.304762	0.000154
 250	2.4776e+01	4.9601	64.083474	0.000872	8.715475	1.476442	0.000174
 251	2.4875e+01	4.9798	64.240922	0.000790	7.904734	1.339098	0.000158
 252	2.4974e+01	4.9996	64.438742	0.000993	9.931588	1.682457	0.000199
 253	2.5074e+01	5.0190	64.612339	0.000872	8.715475	1.476442	0.000174
 254	2.5174e+01	5.0394	64.741527	0.000649	6.485935	1.098747	0.000130
 255	2.5273e+01	5.0588	64.911087	0.000851	8.512790	1.442106	0.000170
 256	2.5372e+01	5.0784	65.068535	0.000790	7.904734	1.339098	0.000158
 257	2.5472e+01	5.0992	65.217909	0.000750	7.499363	1.270426	0.000150
 258	2.5572e+01	5.1193	65.407655	0.000953	9.526217	1.613785	0.000191
 259	2.5671e+01	5.1385	65.585289	0.000892	8.918161	1.510777	0.000179
 260	2.5770e+01	5.1585	65.758885	0.000872	8.715475	1.476442	0.000174
 261	2.5870e+01	5.1796	65.948631	0.000953	9.526217	1.613785	0.000191
 262	2.5970e+01	5.1986	66.085893	0.000689	6.891306	1.167419	0.000138
 263	2.6069e+01	5.2178	66.263527	0.000892	8.918161	1.510777	0.000179
 264	2.6169e+01	5.2370	66.441161	0.000892	8.918161	1.510777	0.000179
 265	2.6268e+01	5.2590	66.594573	0.000770	7.702048	1.304762	0.000154
 266	2.6367e+01	5.2773	66.731835	0.000689	6.891306	1.167419	0.000138
 267	2.6467e+01	5.2981	66.885246	0.000770	7.702048	1.304762	0.000154
 268	2.6567e+01	5.3176	67.058843	0.000872	8.715475	1.476442	0.000174
 269	2.6666e+01	5.3384	67.196106	0.000689	6.891306	1.167419	0.000138
 270	2.6765e+01	5.3568	67.377777	0.000912	9.120846	1.545113	0.000183
 271	2.6865e+01	5.3780	67.539262	0.000811	8.107419	1.373434	0.000162
 272	2.6965e+01	5.3970	67.729008	0.000953	9.526217	1.613785	0.000191
 273	2.7064e+01	5.4188	67.878382	0.000750	7.499363	1.270426	0.000150
 274	2.7163e+01	5.4369	68.011607	0.000669	6.688621	1.133083	0.000134
 275	2.7263e+01	5.4537	68.160981	0.000750	7.499363	1.270426	0.000150
 276	2.7363e+01	5.4772	68.374949	0.001074	10.742330	1.819800	0.000215
 277	2.7462e+01	5.4979	68.496063	0.000608	6.080564	1.030075	0.000122
 278	2.7561e+01	5.5170	68.677735	0.000912	9.120846	1.545113	0.000183
 279	2.7661e+01	5.5381	68.827109	0.000750	7.499363	1.270426	0.000150
 280	2.7761e+01	5.5569	69.000705	0.000872	8.715475	1.476442	0.000174
 281	2.7860e+01	5.5779	69.154117	0.000770	7.702048	1.304762	0.000154
 282	2.7959e+01	5.5966	69.355973	0.001013	10.134274	1.716792	0.000203
 283	2.8059e+01	5.6179	69.477087	0.000608	6.080564	1.030075	0.000122
 284	2.8159e+01	5.6378	69.646647	0.000851	8.512790	1.442106	0.000170
 285	2.8258e+01	5.6571	69.816207	0.000851	8.512790	1.442106	0.000170
 286	2.8358e+01	5.6763	70.001915	0.000932	9.323532	1.579449	0.000187
 287	2.8457e+01	5.6966	70.167438	0.000831	8.310105	1.407770	0.000166
 288	2.8556e+01	5.7166	70.328923	0.000811	8.107419	1.373434	0.000162
 289	2.8656e+01	5.7360	70.482334	0.000770	7.702048	1.304762	0.000154
 290	2.8756e+01	5.7552	70.607485	0.000628	6.283250	1.064411	0.000126
 291	2.8855e+01	5.7766	70.801268	0.000973	9.728903	1.648121	0.000195
 292	2.8954e+01	5.7955	70.962753	0.000811	8.107419	1.373434	0.000162
 293	2.9054e+01	5.8159	71.128276	0.000831	8.310105	1.407770	0.000166
 294	2.9154e+01	5.8359	71.273613	0.000730	7.296677	1.236091	0.000146
 295	2.9253e+01	5.8558	71.459321	0.000932	9.323532	1.579449	0.000187
 296	2.9352e+01	5.8765	71.624844	0.000831	8.310105	1.407770	0.000166
 297	2.9452e+01	5.8956	71.766143	0.000709	7.093992	1.201755	0.000142
 298	2.9552e+01	5.9156	71.947815	0.000912	9.120846	1.545113	0.000183
 299	2.9651e+01	5.9357	72.068929	0.000608	6.080564	1.030075	0.000122
 300	2.9750e+01	5.9557	72.266748	0.000993	9.931588	1.682457	0.000199
 301	2.9850e+01	5.9754	72.395937	0.000649	6.485935	1.098747	0.000130
 302	2.9950e+01	5.9948	72.573571	0.000892	8.918161	1.510777	0.000179
 303	3.0049e+01	6.0156	72.714870	0.000709	7.093992	1.201755	0.000142
 304	3.0148e+01	6.0354	72.884430	0.000851	8.512790	1.442106	0.000170
 305	3.0248e+01	6.0556	73.041878	0.000790	7.904734	1.339098	0.000158
 306	3.0348e+01	6.0757	73.179141	0.000689	6.891306	1.167419	0.000138
 307	3.0447e+01	6.0954	73.372923	0.000973	9.728903	1.648121	0.000195
 308	3.0547e+01	6.1147	73.522297	0.000750	7.499363	1.270426	0.000150
 309	3.0646e+01	6.1356	73.671672	0.000750	7.499363	1.270426	0.000150
 310	3.0745e+01	6.1556	73.857380	0.000932	9.323532	1.579449	0.000187
 311	3.0845e+01	6.1736	74.006754	0.000750	7.499363	1.270426	0.000150
 312	3.0945e+01	6.1939	74.168239	0.000811	8.107419	1.373434	0.000162
 313	3.1044e+01	6.2148	74.313576	0.000730	7.296677	1.236091	0.000146
 314	3.1143e+01	6.2354	74.466987	0.000770	7.702048	1.304762	0.000154
 315	3.1243e+01	6.2519	74.644621	0.000892	8.918161	1.510777	0.000179
 316	3.1343e+01	6.2737	74.793995	0.000750	7.499363	1.270426	0.000150
 317	3.1442e+01	6.2937	74.939332	0.000730	7.296677	1.236091	0.000146
 318	3.1541e+01	6.3134	75.076595	0.000689	6.891306	1.167419	0.000138
 319	3.1641e+01	6.3335	75.258266	0.000912	9.120846	1.545113	0.000183
 320	3.1741e+01	6.3530	75.419751	0.000811	8.107419	1.373434	0.000162
 321	3.1840e+01	6.3738	75.557014	0.000689	6.891306	1.167419	0.000138
 322	3.1939e+01	6.3937	75.734648	0.000892	8.918161	1.510777	0.000179
 323	3.2039e+01	6.4127	75.912282	0.000892	8.918161	1.510777	0.000179
 324	3.2139e+01	6.4324	76.033396	0.000608	6.080564	1.030075	0.000122
 325	3.2238e+01	6.4526	76.182770	0.000750	7.499363	1.270426	0.000150
 326	3.2337e+01	6.4734	76.344255	0.000811	8.107419	1.373434	0.000162
 327	3.2437e+01	6.4935	76.509778	0.000831	8.310105	1.407770	0.000166
 328	3.2536e+01	6.5129	76.659152	0.000750	7.499363	1.270426	0.000150
 329	3.2636e+01	6.5333	76.840823	0.000912	9.120846	1.545113	0.000183
 330	3.2736e+01	6.5520	77.006346	0.000831	8.310105	1.407770	0.000166
 331	3.2835e+01	6.5723	77.155720	0.000750	7.499363	1.270426	0.000150
 332	3.2934e+01	6.5920	77.297019	0.000709	7.093992	1.201755	0.000142
 333	3.3034e+01	6.6102	77.438319	0.000709	7.093992	1.201755	0.000142
 334	3.3133e+01	6.6321	77.624027	0.000932	9.323532	1.579449	0.000187
 335	3.3233e+01	6.6531	77.745141	0.000608	6.080564	1.030075	0.000122
 336	3.3333e+01	6.6721	77.898553	0.000770	7.702048	1.304762	0.000154
 337	3.3432e+01	6.6924	78.047927	0.000750	7.499363	1.270426	0.000150
 338	3.3532e+01	6.7122	78.241709	0.000973	9.728903	1.648121	0.000195
 339	3.3631e+01	6.7318	78.366860	0.000628	6.283250	1.064411	0.000126
 340	3.3730e+01	6.7519	78.532383	0.000831	8.310105	1.407770	0.000166
 341	3.3830e+01	6.7745	78.669646	0.000689	6.891306	1.167419	0.000138
 342	3.3929e+01	6.7921	78.827094	0.000790	7.904734	1.339098	0.000158
 343	3.4029e+01	6.8124	78.996654	0.000851	8.512790	1.442106	0.000170
 344	3.4129e+01	6.8311	79.121805	0.000628	6.283250	1.064411	0.000126
 345	3.4228e+01	6.8511	79.327699	0.001034	10.336959	1.751128	0.000207
 346	3.4328e+01	6.8718	79.473036	0.000730	7.296677	1.236091	0.000146
 347	3.4427e+01	6.8916	79.606261	0.000669	6.688621	1.133083	0.000134
 348	3.4526e+01	6.9112	79.747561	0.000709	7.093992	1.201755	0.000142
 349	3.4626e+01	6.9316	79.909046	0.000811	8.107419	1.373434	0.000162
 350	3.4725e+01	6.9514	80.058420	0.000750	7.499363	1.270426	0.000150
 351	3.4825e+01	6.9701	80.191646	0.000669	6.688621	1.133083	0.000134
 352	3.4925e+01	6.9906	80.365243	0.000872	8.715475	1.476442	0.000174
 353	3.5024e+01	7.0110	80.502505	0.000689	6.891306	1.167419	0.000138
 354	3.5123e+01	7.0303	80.655916	0.000770	7.702048	1.304762	0.000154
 355	3.5223e+01	7.0506	80.805290	0.000750	7.499363	1.270426	0.000150
 356	3.5322e+01	7.0703	80.966776	0.000811	8.107419	1.373434	0.000162
 357	3.5422e+01	7.0907	81.108076	0.000709	7.093992	1.201755	0.000142
 358	3.5522e+01	7.1098	81.261487	0.000770	7.702048	1.304762	0.000154
 359	3.5621e+01	7.1307	81.374527	0.000568	5.675193	0.961404	0.000114
 360	3.5721e+01	7.1504	81.568309	0.000973	9.728903	1.648121	0.000195
 361	3.5820e+01	7.1687	81.693460	0.000628	6.283250	1.064411	0.000126
 362	3.5919e+01	7.1898	81.858983	0.000831	8.310105	1.407770	0.000166
 363	3.6019e+01	7.2099	81.988171	0.000649	6.485935	1.098747	0.000130
 364	3.6118e+01	7.2303	82.113322	0.000628	6.283250	1.064411	0.000126
 365	3.6218e+01	7.2503	82.278845	0.000831	8.310105	1.407770	0.000166
 366	3.6318e+01	7.2697	82.444367	0.000831	8.310105	1.407770	0.000166
 367	3.6417e+01	7.2894	82.573556	0.000649	6.485935	1.098747	0.000130
 368	3.6517e+01	7.3092	82.722930	0.000750	7.499363	1.270426	0.000150
 369	3.6616e+01	7.3300	82.848081	0.000628	6.283250	1.064411	0.000126
 370	3.6715e+01	7.3502	83.029752	0.000912	9.120846	1.545113	0.000183
 371	3.6815e+01	7.3689	83.138755	0.000547	5.472508	0.927068	0.000110
 372	3.6914e+01	7.3899	83.308315	0.000851	8.512790	1.442106	0.000170
 373	3.7014e+01	7.4087	83.437503	0.000649	6.485935	1.098747	0.000130
 374	3.7114e+01	7.4289	83.586877	0.000750	7.499363	1.270426	0.000150
 375	3.7213e+01	7.4440	83.740288	0.000770	7.702048	1.304762	0.000154
 376	3.7313e+01	7.4691	83.861402	0.000608	6.080564	1.030075	0.000122
 377	3.7412e+01	7.4894	84.063259	0.001013	10.134274	1.716792	0.000203
 378	3.7511e+01	7.5095	84.131890	0.000345	3.445653	0.583709	0.000069
 379	3.7611e+01	7.5291	84.305487	0.000872	8.715475	1.476442	0.000174
 380	3.7711e+01	7.5494	84.422564	0.000588	5.877879	0.995740	0.000118
 381	3.7810e+01	7.5699	84.596161	0.000872	8.715475	1.476442	0.000174
 382	3.7910e+01	7.5890	84.769758	0.000872	8.715475	1.476442	0.000174
 383	3.8009e+01	7.6070	84.850500	0.000405	4.053710	0.686717	0.000081
 384	3.8108e+01	7.6283	85.040246	0.000953	9.526217	1.613785	0.000191
 385	3.8208e+01	7.6482	85.173471	0.000669	6.688621	1.133083	0.000134
 386	3.8307e+01	7.6690	85.302660	0.000649	6.485935	1.098747	0.000130
 387	3.8407e+01	7.6886	85.419737	0.000588	5.877879	0.995740	0.000118
 388	3.8507e+01	7.7079	85.581222	0.000811	8.107419	1.373434	0.000162
 389	3.8606e+01	7.7280	85.714447	0.000669	6.688621	1.133083	0.000134
 390	3.8706e+01	7.7485	85.839599	0.000628	6.283250	1.064411	0.000126
 391	3.8805e+01	7.7677	85.993010	0.000770	7.702048	1.304762	0.000154
 392	3.8904e+01	7.7884	86.146421	0.000770	7.702048	1.304762	0.000154
 393	3.9004e+01	7.8089	86.291758	0.000730	7.296677	1.236091	0.000146
 394	3.9103e+01	7.8274	86.404798	0.000568	5.675193	0.961404	0.000114
 395	3.9203e+01	7.8468	86.542060	0.000689	6.891306	1.167419	0.000138
 396	3.9303e+01	7.8677	86.703546	0.000811	8.107419	1.373434	0.000162
 397	3.9402e+01	7.8864	86.844845	0.000709	7.093992	1.201755	0.000142
 398	3.9502e+01	7.9075	86.982108	0.000689	6.891306	1.167419	0.000138
 399	3.9601e+01	7.9270	87.103222	0.000608	6.080564	1.030075	0.000122
 400	3.9700e+01	7.9461	87.252596	0.000750	7.499363	1.270426	0.000150
 401	3.9800e+01	7.9655	87.385822	0.000669	6.688621	1.133083	0.000134
 402	3.9900e+01	7.9852	87.523084	0.000689	6.891306	1.167419	0.000138
 403	3.9999e+01	8.0078	87.632087	0.000547	5.472508	0.927068	0.000110
 404	4.0099e+01	8.0262	87.797609	0.000831	8.310105	1.407770	0.000166
 405	4.0198e+01	8.0475	87.910649	0.000568	5.675193	0.961404	0.000114
 406	4.0297e+01	8.0665	88.064060	0.000770	7.702048	1.304762	0.000154
 407	4.0397e+01	8.0860	88.177100	0.000568	5.675193	0.961404	0.000114
 408	4.0496e+01	8.1063	88.358771	0.000912	9.120846	1.545113	0.000183
 409	4.0596e+01	8.1263	88.475848	0.000588	5.877879	0.995740	0.000118
 410	4.0696e+01	8.1461	88.609074	0.000669	6.688621	1.133083	0.000134
 411	4.0795e+01	8.1651	88.730188	0.000608	6.080564	1.030075	0.000122
 412	4.0895e+01	8.1860	88.895710	0.000831	8.310105	1.407770	0.000166
 413	4.0994e+01	8.2063	89.028936	0.000669	6.688621	1.133083	0.000134
 414	4.1093e+01	8.2255	89.158124	0.000649	6.485935	1.098747	0.000130
 415	4.1193e+01	8.2462	89.299424	0.000709	7.093992	1.201755	0.000142
 416	4.1292e+01	8.2668	89.473021	0.000872	8.715475	1.476442	0.000174
 417	4.1392e+01	8.2848	89.594135	0.000608	6.080564	1.030075	0.000122
 418	4.1492e+01	8.3047	89.727360	0.000669	6.688621	1.133083	0.000134
 419	4.1591e+01	8.3260	89.808103	0.000405	4.053710	0.686717	0.000081
 420	4.1691e+01	8.3444	89.953440	0.000730	7.296677	1.236091	0.000146
 421	4.1790e+01	8.3648	90.102814	0.000750	7.499363	1.270426	0.000150
 422	4.1889e+01	8.3868	90.223928	0.000608	6.080564	1.030075	0.000122
 423	4.1989e+01	8.4049	90.393488	0.000851	8.512790	1.442106	0.000170
 424	4.2089e+01	8.4248	90.538825	0.000730	7.296677	1.236091	0.000146
 425	4.2188e+01	8.4454	90.663976	0.000628	6.283250	1.064411	0.000126
 426	4.2288e+01	8.4657	90.789127	0.000628	6.283250	1.064411	0.000126
 427	4.2387e+01	8.4849	90.922353	0.000669	6.688621	1.133083	0.000134
 428	4.2486e+01	8.5049	91.035392	0.000568	5.675193	0.961404	0.000114
 429	4.2586e+01	8.5255	91.196878	0.000811	8.107419	1.373434	0.000162
 430	4.2685e+01	8.5449	91.350289	0.000770	7.702048	1.304762	0.000154
 431	4.2785e+01	8.5651	91.443143	0.000466	4.661766	0.789725	0.000093
 432	4.2885e+01	8.5848	91.584443	0.000709	7.093992	1.201755	0.000142
 433	4.2984e+01	8.6040	91.693445	0.000547	5.472508	0.927068	0.000110
 434	4.3084e+01	8.6243	91.863005	0.000851	8.512790	1.442106	0.000170
 435	4.3183e+01	8.6436	91.976045	0.000568	5.675193	0.961404	0.000114
 436	4.3282e+01	8.6646	92.117345	0.000709	7.093992	1.201755	0.000142
 437	4.3382e+01	8.6848	92.254607	0.000689	6.891306	1.167419	0.000138
 438	4.3481e+01	8.7041	92.379759	0.000628	6.283250	1.064411	0.000126
 439	4.3581e+01	8.7234	92.521058	0.000709	7.093992	1.201755	0.000142
 440	4.3681e+01	8.7440	92.646209	0.000628	6.283250	1.064411	0.000126
 441	4.3780e+01	8.7630	92.791546	0.000730	7.296677	1.236091	0.000146
 442	4.3880e+01	8.7834	92.928809	0.000689	6.891306	1.167419	0.000138
 443	4.3979e+01	8.8037	93.078183	0.000750	7.499363	1.270426	0.000150
 444	4.4078e+01	8.8232	93.235631	0.000790	7.904734	1.339098	0.000158
 445	4.4178e+01	8.8418	93.324448	0.000446	4.459080	0.755389	0.000089
 446	4.4278e+01	8.8613	93.477859	0.000770	7.702048	1.304762	0.000154
 447	4.4377e+01	8.8823	93.578788	0.000507	5.067137	0.858396	0.000101
 448	4.4477e+01	8.9021	93.740273	0.000811	8.107419	1.373434	0.000162
 449	4.4576e+01	8.9229	93.869462	0.000649	6.485935	1.098747	0.000130
 450	4.4675e+01	8.9417	94.002687	0.000669	6.688621	1.133083	0.000134
 451	4.4775e+01	8.9625	94.135913	0.000669	6.688621	1.133083	0.000134
 452	4.4874e+01	8.9825	94.240878	0.000527	5.269822	0.892732	0.000105
 453	4.4974e+01	9.0017	94.378141	0.000689	6.891306	1.167419	0.000138
 454	4.5074e+01	9.0206	94.523478	0.000730	7.296677	1.236091	0.000146
 455	4.5173e+01	9.0463	94.664777	0.000709	7.093992	1.201755	0.000142
 456	4.5273e+01	9.0625	94.798003	0.000669	6.688621	1.133083	0.000134
 457	4.5372e+01	9.0820	94.907005	0.000547	5.472508	0.927068	0.000110
 458	4.5471e+01	9.1010	95.068491	0.000811	8.107419	1.373434	0.000162
 459	4.5571e+01	9.1225	95.173456	0.000527	5.269822	0.892732	0.000105
 460	4.5670e+01	9.1416	95.371276	0.000993	9.931588	1.682457	0.000199
 461	4.5770e+01	9.1602	95.468167	0.000486	4.864451	0.824060	0.000097
 462	4.5870e+01	9.1814	95.613504	0.000730	7.296677	1.236091	0.000146
 463	4.5969e+01	9.2010	95.742693	0.000649	6.485935	1.098747	0.000130
 464	4.6069e+01	9.2206	95.871881	0.000649	6.485935	1.098747	0.000130
 465	4.6168e+01	9.2413	96.013181	0.000709	7.093992	1.201755	0.000142
 466	4.6267e+01	9.2599	96.142369	0.000649	6.485935	1.098747	0.000130
 467	4.6367e+01	9.2812	96.295780	0.000770	7.702048	1.304762	0.000154
 468	4.6467e+01	9.3003	96.441117	0.000730	7.296677	1.236091	0.000146
 469	4.6566e+01	9.3213	96.521860	0.000405	4.053710	0.686717	0.000081
 470	4.6666e+01	9.3410	96.711605	0.000953	9.526217	1.613785	0.000191
 471	4.6765e+01	9.3606	96.840794	0.000649	6.485935	1.098747	0.000130
 472	4.6864e+01	9.3807	96.905388	0.000324	3.242968	0.549374	0.000065
 473	4.6964e+01	9.3998	97.070910	0.000831	8.310105	1.407770	0.000166
 474	4.7063e+01	9.4196	97.167802	0.000486	4.864451	0.824060	0.000097
 475	4.7163e+01	9.4394	97.325250	0.000790	7.904734	1.339098	0.000158
 476	4.7263e+01	9.4588	97.474624	0.000750	7.499363	1.270426	0.000150
 477	4.7362e+01	9.4795	97.587664	0.000568	5.675193	0.961404	0.000114
 478	4.7462e+01	9.4996	97.761260	0.000872	8.715475	1.476442	0.000174
 479	4.7561e+01	9.5203	97.898523	0.000689	6.891306	1.167419	0.000138
 480	4.7660e+01	9.5398	97.983303	0.000426	4.256395	0.721053	0.000085
 481	4.7760e+01	9.5599	98.164974	0.000912	9.120846	1.545113	0.000183
 482	4.7859e+01	9.5801	98.286088	0.000608	6.080564	1.030075	0.000122
 483	4.7959e+01	9.5986	98.399128	0.000568	5.675193	0.961404	0.000114
 484	4.8059e+01	9.6218	98.556576	0.000790	7.904734	1.339098	0.000158
 485	4.8158e+01	9.6394	98.701913	0.000730	7.296677	1.236091	0.000146
 486	4.8258e+01	9.6601	98.831101	0.000649	6.485935	1.098747	0.000130
 487	4.8357e+01	9.6787	98.944141	0.000568	5.675193	0.961404	0.000114
 488	4.8456e+01	9.6987	99.113701	0.000851	8.512790	1.442106	0.000170
 489	4.8556e+01	9.7187	99.234815	0.000608	6.080564	1.030075	0.000122
 490	4.8656e+01	9.7388	99.368040	0.000669	6.688621	1.133083	0.000134
 491	4.8755e+01	9.7584	99.517415	0.000750	7.499363	1.270426	0.000150
 492	4.8855e+01	9.7781	99.606231	0.000446	4.459080	0.755389	0.000089
 493	4.8954e+01	9.7987	99.771754	0.000831	8.310105	1.407770	0.000166
 494	4.9053e+01	9.8193	99.884794	0.000568	5.675193	0.961404	0.000114
 495	4.9153e+01	9.8380	100.038205	0.000770	7.702048	1.304762	0.000154
 496	4.9252e+01	9.8584	100.187579	0.000750	7.499363	1.270426	0.000150
 497	4.9352e+01	9.8779	100.320805	0.000669	6.688621	1.133083	0.000134
 498	4.9452e+01	9.8987	100.413659	0.000466	4.661766	0.789725	0.000093
 499	4.9551e+01	9.9174	100.579181	0.000831	8.310105	1.407770	0.000166
 500	4.9651e+01	9.9378	100.712407	0.000669	6.688621	1.133083	0.000134
 501	4.9750e+01	9.9581	100.825446	0.000568	5.675193	0.961404	0.000114
 502	4.9849e+01	9.9776	100.966746	0.000709	7.093992	1.201755	0.000142
 503	4.9949e+01	9.9982	101.136306	0.000851	8.512790	1.442106	0.000170
 504	5.0048e+01	9.9776	101.051526	0.000426	4.256395	0.721053	-0.000085
 505	5.0148e+01	9.9579	100.954635	0.000486	4.864451	0.824060	-0.000097
 506	5.0248e+01	9.9380	100.881966	0.000365	3.648339	0.618045	-0.000073
 507	5.0347e+01	9.9194	100.801224	0.000405	4.053710	0.686717	-0.000081
 508	5.0447e+01	9.8988	100.712407	0.000446	4.459080	0.755389	-0.000089
 509	5.0546e+01	9.8792	100.623590	0.000446	4.459080	0.755389	-0.000089
 510	5.0645e+01	9.8588	100.579181	0.000223	2.229540	0.377694	-0.000045
 511	5.0745e+01	9.8380	100.482290	0.000486	4.864451	0.824060	-0.000097
 512	5.0844e+01	9.8185	100.393473	0.000446	4.459080	0.755389	-0.000089
 513	5.0944e+01	9.7998	100.312730	0.000405	4.053710	0.686717	-0.000081
 514	5.1044e+01	9.7781	100.236025	0.000385	3.851024	0.652381	-0.000077
 515	5.1143e+01	9.7580	100.139133	0.000486	4.864451	0.824060	-0.000097
 516	5.1242e+01	9.7388	100.054354	0.000426	4.256395	0.721053	-0.000085
 517	5.1342e+01	9.7192	99.941314	0.000568	5.675193	0.961404	-0.000114
 518	5.1441e+01	9.6994	99.852497	0.000446	4.459080	0.755389	-0.000089
 519	5.1541e+01	9.6796	99.787903	0.000324	3.242968	0.549374	-0.000065
 520	5.1641e+01	9.6606	99.678900	0.000547	5.472508	0.927068	-0.000110
 521	5.1740e+01	9.6396	99.590083	0.000446	4.459080	0.755389	-0.000089
 522	5.1840e+01	9.6204	99.489155	0.000507	5.067137	0.858396	-0.000101
 523	5.1939e+01	9.5984	99.436672	0.000263	2.634911	0.446366	-0.000053
 524	5.2038e+01	9.5801	99.303446	0.000669	6.688621	1.133083	-0.000134
 525	5.2138e+01	9.5618	99.226741	0.000385	3.851024	0.652381	-0.000077
 526	5.2237e+01	9.5399	99.101590	0.000628	6.283250	1.064411	-0.000126
 527	5.2337e+01	9.5193	98.992587	0.000547	5.472508	0.927068	-0.000110
 528	5.2437e+01	9.4996	98.923956	0.000345	3.445653	0.583709	-0.000069
 529	5.2536e+01	9.4785	98.835139	0.000446	4.459080	0.755389	-0.000089
 530	5.2636e+01	9.4595	98.766507	0.000345	3.445653	0.583709	-0.000069
 531	5.2735e+01	9.4394	98.617133	0.000750	7.499363	1.270426	-0.000150
 532	5.2834e+01	9.4214	98.548502	0.000345	3.445653	0.583709	-0.000069
 533	5.2934e+01	9.4001	98.427388	0.000608	6.080564	1.030075	-0.000122
 534	5.3033e+01	9.3812	98.334534	0.000466	4.661766	0.789725	-0.000093
 535	5.3133e+01	9.3604	98.217457	0.000588	5.877879	0.995740	-0.000118
 536	5.3233e+01	9.3408	98.136714	0.000405	4.053710	0.686717	-0.000081
 537	5.3332e+01	9.3216	98.047897	0.000446	4.459080	0.755389	-0.000089
 538	5.3431e+01	9.3018	97.922746	0.000628	6.283250	1.064411	-0.000126
 539	5.3531e+01	9.2800	97.846040	0.000385	3.851024	0.652381	-0.000077
 540	5.3630e+01	9.2606	97.737038	0.000547	5.472508	0.927068	-0.000110
 541	5.3730e+01	9.2413	97.599775	0.000689	6.891306	1.167419	-0.000138
 542	5.3830e+01	9.2206	97.510958	0.000446	4.459080	0.755389	-0.000089
 543	5.3929e+01	9.2017	97.389844	0.000608	6.080564	1.030075	-0.000122
 544	5.4029e+01	9.1807	97.284878	0.000527	5.269822	0.892732	-0.000105
 545	5.4128e+01	9.1618	97.224321	0.000304	3.040282	0.515038	-0.000061
 546	5.4227e+01	9.1424	97.119356	0.000527	5.269822	0.892732	-0.000105
 547	5.4327e+01	9.1217	96.974019	0.000730	7.296677	1.236091	-0.000146
 548	5.4426e+01	9.1016	96.860979	0.000568	5.675193	0.961404	-0.000114
 549	5.4526e+01	9.0821	96.768125	0.000466	4.661766	0.789725	-0.000093
 550	5.4626e+01	9.0615	96.699494	0.000345	3.445653	0.583709	-0.000069
 551	5.4725e+01	9.0423	96.582417	0.000588	5.877879	0.995740	-0.000118
 552	5.4825e+01	9.0227	96.469377	0.000568	5.675193	0.961404	-0.000114
 553	5.4924e+01	9.0030	96.348263	0.000608	6.080564	1.030075	-0.000122
 554	5.5023e+01	8.9816	96.251372	0.000486	4.864451	0.824060	-0.000097
 555	5.5123e+01	8.9624	96.178703	0.000365	3.648339	0.618045	-0.000073
 556	5.5222e+01	8.9423	96.029329	0.000750	7.499363	1.270426	-0.000150
 557	5.5322e+01	8.9227	95.916289	0.000568	5.675193	0.961404	-0.000114
 558	5.5422e+01	8.9038	95.819398	0.000486	4.864451	0.824060	-0.000097
 559	5.5521e+01	8.8824	95.706358	0.000568	5.675193	0.961404	-0.000114
 560	5.5620e+01	8.8626	95.625616	0.000405	4.053710	0.686717	-0.000081
 561	5.5720e+01	8.8422	95.488353	0.000689	6.891306	1.167419	-0.000138
 562	5.5819e+01	8.8235	95.383388	0.000527	5.269822	0.892732	-0.000105
 563	5.5919e+01	8.8037	95.274385	0.000547	5.472508	0.927068	-0.000110
 564	5.6019e+01	8.7845	95.177494	0.000486	4.864451	0.824060	-0.000097
 565	5.6118e+01	8.7646	95.120974	0.000284	2.837597	0.480702	-0.000057
 566	5.6218e+01	8.7435	94.935265	0.000932	9.323532	1.579449	-0.000187
 567	5.6317e+01	8.7239	94.846448	0.000446	4.459080	0.755389	-0.000089
 568	5.6416e+01	8.7037	94.761669	0.000426	4.256395	0.721053	-0.000085
 569	5.6516e+01	8.6842	94.636517	0.000628	6.283250	1.064411	-0.000126
 570	5.6615e+01	8.6646	94.511366	0.000628	6.283250	1.064411	-0.000126
 571	5.6715e+01	8.6444	94.370066	0.000709	7.093992	1.201755	-0.000142
 572	5.6815e+01	8.6242	94.313547	0.000284	2.837597	0.480702	-0.000057
 573	5.6914e+01	8.6044	94.180321	0.000669	6.688621	1.133083	-0.000134
 574	5.7014e+01	8.5845	94.075356	0.000527	5.269822	0.892732	-0.000105
 575	5.7113e+01	8.5645	93.978464	0.000486	4.864451	0.824060	-0.000097
 576	5.7212e+01	8.5449	93.837165	0.000709	7.093992	1.201755	-0.000142
 577	5.7312e+01	8.5254	93.752385	0.000426	4.256395	0.721053	-0.000085
 578	5.7411e+01	8.5046	93.615122	0.000689	6.891306	1.167419	-0.000138
 579	5.7511e+01	8.4849	93.510157	0.000527	5.269822	0.892732	-0.000105
 580	5.7611e+01	8.4644	93.401154	0.000547	5.472508	0.927068	-0.000110
 581	5.7710e+01	8.4443	93.271966	0.000649	6.485935	1.098747	-0.000130
 582	5.7809e+01	8.4254	93.142777	0.000649	6.485935	1.098747	-0.000130
 583	5.7909e+01	8.4052	93.066072	0.000385	3.851024	0.652381	-0.000077
 584	5.8008e+01	8.3851	92.912660	0.000770	7.702048	1.304762	-0.000154
 585	5.8108e+01	8.3652	92.799621	0.000568	5.675193	0.961404	-0.000114
 586	5.8208e+01	8.3450	92.658321	0.000709	7.093992	1.201755	-0.000142
 587	5.8307e+01	8.3252	92.605838	0.000263	2.634911	0.446366	-0.000053
 588	5.8407e+01	8.3048	92.476650	0.000649	6.485935	1.098747	-0.000130
 589	5.8506e+01	8.2847	92.327276	0.000750	7.499363	1.270426	-0.000150
 590	5.8605e+01	8.2654	92.214236	0.000568	5.675193	0.961404	-0.000114
 591	5.8705e+01	8.2459	92.145605	0.000345	3.445653	0.583709	-0.000069
 592	5.8804e+01	8.2256	91.996231	0.000750	7.499363	1.270426	-0.000150
 593	5.8904e+01	8.2060	91.907414	0.000446	4.459080	0.755389	-0.000089
 594	5.9004e+01	8.1857	91.778225	0.000649	6.485935	1.098747	-0.000130
 595	5.9103e+01	8.1662	91.640963	0.000689	6.891306	1.167419	-0.000138
 596	5.9203e+01	8.1452	91.527923	0.000568	5.675193	0.961404	-0.000114
 597	5.9302e+01	8.1266	91.418920	0.000547	5.472508	0.927068	-0.000110
 598	5.9401e+01	8.1063	91.322029	0.000486	4.864451	0.824060	-0.000097
 599	5.9501e+01	8.0863	91.176692	0.000730	7.296677	1.236091	-0.000146
 600	5.9600e+01	8.0667	91.059615	0.000588	5.877879	0.995740	-0.000118
 601	5.9700e+01	8.0455	90.958687	0.000507	5.067137	0.858396	-0.000101
 602	5.9800e+01	8.0258	90.849684	0.000547	5.472508	0.927068	-0.000110
 603	5.9899e+01	8.0074	90.700310	0.000750	7.499363	1.270426	-0.000150
 604	5.9998e+01	7.9865	90.587270	0.000568	5.675193	0.961404	-0.000114
 605	6.0098e+01	7.9668	90.478268	0.000547	5.472508	0.927068	-0.000110
 606	6.0197e+01	7.9473	90.353116	0.000628	6.283250	1.064411	-0.000126
 607	6.0297e+01	7.9278	90.264299	0.000446	4.459080	0.755389	-0.000089
 608	6.0397e+01	7.9082	90.098777	0.000831	8.310105	1.407770	-0.000166
 609	6.0496e+01	7.8879	90.005923	0.000466	4.661766	0.789725	-0.000093
 610	6.0596e+01	7.8674	89.892883	0.000568	5.675193	0.961404	-0.000114
 611	6.0695e+01	7.8471	89.759657	0.000669	6.688621	1.133083	-0.000134
 612	6.0794e+01	7.8272	89.650655	0.000547	5.472508	0.927068	-0.000110
 613	6.0894e+01	7.8081	89.513392	0.000689	6.891306	1.167419	-0.000138
 614	6.0993e+01	7.7866	89.436687	0.000385	3.851024	0.652381	-0.000077
 615	6.1093e+01	7.7671	89.287313	0.000750	7.499363	1.270426	-0.000150
 616	6.1193e+01	7.7470	89.202533	0.000426	4.256395	0.721053	-0.000085
 617	6.1292e+01	7.7274	89.073344	0.000649	6.485935	1.098747	-0.000130
 618	6.1392e+01	7.7081	88.940119	0.000669	6.688621	1.133083	-0.000134
 619	6.1491e+01	7.6882	88.835153	0.000527	5.269822	0.892732	-0.000105
 620	6.1590e+01	7.6675	88.677705	0.000790	7.904734	1.339098	-0.000158
 621	6.1690e+01	7.6489	88.580814	0.000486	4.864451	0.824060	-0.000097
 622	6.1789e+01	7.6286	88.459700	0.000608	6.080564	1.030075	-0.000122
 623	6.1889e+01	7.6083	88.378957	0.000405	4.053710	0.686717	-0.000081
 624	6.1989e+01	7.5890	88.213434	0.000831	8.310105	1.407770	-0.000166
 625	6.2088e+01	7.5688	88.120580	0.000466	4.661766	0.789725	-0.000093
 626	6.2188e+01	7.5484	87.991392	0.000649	6.485935	1.098747	-0.000130
 627	6.2287e+01	7.5294	87.854129	0.000689	6.891306	1.167419	-0.000138
 628	6.2386e+01	7.5093	87.757238	0.000486	4.864451	0.824060	-0.000097
 629	6.2486e+01	7.4884	87.648235	0.000547	5.472508	0.927068	-0.000110
 630	6.2586e+01	7.4681	87.494824	0.000770	7.702048	1.304762	-0.000154
 631	6.2685e+01	7.4483	87.353525	0.000709	7.093992	1.201755	-0.000142
 632	6.2785e+01	7.4299	87.252596	0.000507	5.067137	0.858396	-0.000101
 633	6.2884e+01	7.4094	87.155705	0.000486	4.864451	0.824060	-0.000097
 634	6.2983e+01	7.3894	87.018442	0.000689	6.891306	1.167419	-0.000138
 635	6.3083e+01	7.3666	86.925588	0.000466	4.661766	0.789725	-0.000093
 636	6.3182e+01	7.3486	86.788326	0.000689	6.891306	1.167419	-0.000138
 637	6.3282e+01	7.3306	86.647026	0.000709	7.093992	1.201755	-0.000142
 638	6.3382e+01	7.3099	86.542060	0.000527	5.269822	0.892732	-0.000105
 639	6.3481e+01	7.2894	86.457280	0.000426	4.256395	0.721053	-0.000085
 640	6.3581e+01	7.2686	86.299832	0.000790	7.904734	1.339098	-0.000158
 641	6.3680e+01	7.2500	86.174681	0.000628	6.283250	1.064411	-0.000126
 642	6.3779e+01	7.2297	86.053567	0.000608	6.080564	1.030075	-0.000122
 643	6.3879e+01	7.2112	85.948601	0.000527	5.269822	0.892732	-0.000105
 644	6.3978e+01	7.1909	85.823450	0.000628	6.283250	1.064411	-0.000126
 645	6.4078e+01	7.1699	85.694262	0.000649	6.485935	1.098747	-0.000130
 646	6.4177e+01	7.1502	85.565073	0.000649	6.485935	1.098747	-0.000130
 647	6.4277e+01	7.1283	85.431848	0.000669	6.688621	1.133083	-0.000134
 648	6.4376e+01	7.1114	85.330920	0.000507	5.067137	0.858396	-0.000101
 649	6.4476e+01	7.0911	85.221917	0.000547	5.472508	0.927068	-0.000110
 650	6.4576e+01	7.0711	85.072543	0.000750	7.499363	1.270426	-0.000150
 651	6.4675e+01	7.0508	84.999874	0.000365	3.648339	0.618045	-0.000073
 652	6.4775e+01	7.0309	84.862612	0.000689	6.891306	1.167419	-0.000138
 653	6.4874e+01	7.0109	84.717275	0.000730	7.296677	1.236091	-0.000146
 654	6.4974e+01	6.9917	84.592124	0.000628	6.283250	1.064411	-0.000126
 655	6.5073e+01	6.9711	84.418527	0.000872	8.715475	1.476442	-0.000174
 656	6.5172e+01	6.9514	84.353933	0.000324	3.242968	0.549374	-0.000065
 657	6.5272e+01	6.9320	84.261079	0.000466	4.661766	0.789725	-0.000093
 658	6.5371e+01	6.9120	84.087482	0.000872	8.715475	1.476442	-0.000174
 659	6.5471e+01	6.8913	83.986553	0.000507	5.067137	0.858396	-0.000101
 660	6.5570e+01	6.8717	83.845254	0.000709	7.093992	1.201755	-0.000142
 661	6.5670e+01	6.8523	83.796808	0.000243	2.432226	0.412030	-0.000049
 662	6.5769e+01	6.8310	83.619174	0.000892	8.918161	1.510777	-0.000179
 663	6.5869e+01	6.8121	83.465763	0.000770	7.702048	1.304762	-0.000154
 664	6.5969e+01	6.7925	83.368872	0.000486	4.864451	0.824060	-0.000097
 665	6.6068e+01	6.7715	83.255832	0.000568	5.675193	0.961404	-0.000114
 666	6.6168e+01	6.7519	83.122606	0.000669	6.688621	1.133083	-0.000134
 667	6.6267e+01	6.7327	82.993418	0.000649	6.485935	1.098747	-0.000130
 668	6.6367e+01	6.7118	82.876341	0.000588	5.877879	0.995740	-0.000118
 669	6.6466e+01	6.6923	82.751190	0.000628	6.283250	1.064411	-0.000126
 670	6.6566e+01	6.6729	82.646224	0.000527	5.269822	0.892732	-0.000105
 671	6.6665e+01	6.6520	82.525110	0.000608	6.080564	1.030075	-0.000122
 672	6.6764e+01	6.6314	82.403996	0.000608	6.080564	1.030075	-0.000122
 673	6.6864e+01	6.6116	82.258659	0.000730	7.296677	1.236091	-0.000146
 674	6.6963e+01	6.5925	82.109285	0.000750	7.499363	1.270426	-0.000150
 675	6.7063e+01	6.5724	82.008357	0.000507	5.067137	0.858396	-0.000101
 676	6.7162e+01	6.5520	81.842834	0.000831	8.310105	1.407770	-0.000166
 677	6.7262e+01	6.5333	81.754017	0.000446	4.459080	0.755389	-0.000089
 678	6.7362e+01	6.5124	81.596569	0.000790	7.904734	1.339098	-0.000158
 679	6.7461e+01	6.4928	81.471418	0.000628	6.283250	1.064411	-0.000126
 680	6.7561e+01	6.4738	81.374527	0.000486	4.864451	0.824060	-0.000097
 681	6.7660e+01	6.4532	81.168633	0.001034	10.336959	1.751128	-0.000207
 682	6.7760e+01	6.4332	81.112113	0.000284	2.837597	0.480702	-0.000057
 683	6.7859e+01	6.4138	80.982924	0.000649	6.485935	1.098747	-0.000130
 684	6.7959e+01	6.3937	80.861810	0.000608	6.080564	1.030075	-0.000122
 685	6.8058e+01	6.3735	80.700325	0.000811	8.107419	1.373434	-0.000162
 686	6.8157e+01	6.3534	80.587285	0.000568	5.675193	0.961404	-0.000114
 687	6.8257e+01	6.3332	80.470208	0.000588	5.877879	0.995740	-0.000118
 688	6.8356e+01	6.3137	80.357168	0.000568	5.675193	0.961404	-0.000114
 689	6.8456e+01	6.2946	80.179534	0.000892	8.918161	1.510777	-0.000179
 690	6.8555e+01	6.2732	80.058420	0.000608	6.080564	1.030075	-0.000122
 691	6.8655e+01	6.2543	79.937306	0.000608	6.080564	1.030075	-0.000122
 692	6.8754e+01	6.2354	79.800044	0.000689	6.891306	1.167419	-0.000138
 693	6.8854e+01	6.2148	79.654707	0.000730	7.296677	1.236091	-0.000146
 694	6.8954e+01	6.1956	79.533593	0.000608	6.080564	1.030075	-0.000122
 695	6.9053e+01	6.1753	79.396330	0.000689	6.891306	1.167419	-0.000138
 696	6.9153e+01	6.1559	79.267142	0.000649	6.485935	1.098747	-0.000130
 697	6.9252e+01	6.1354	79.141990	0.000628	6.283250	1.064411	-0.000126
 698	6.9352e+01	6.1153	78.996654	0.000730	7.296677	1.236091	-0.000146
 699	6.9451e+01	6.0957	78.847280	0.000750	7.499363	1.270426	-0.000150
 700	6.9550e+01	6.0745	78.722128	0.000628	6.283250	1.064411	-0.000126
 701	6.9650e+01	6.0554	78.584866	0.000689	6.891306	1.167419	-0.000138
 702	6.9749e+01	6.0345	78.435492	0.000750	7.499363	1.270426	-0.000150
 703	6.9849e+01	6.0151	78.314378	0.000608	6.080564	1.030075	-0.000122
 704	6.9948e+01	5.9948	78.173078	0.000709	7.093992	1.201755	-0.000142
 705	7.0048e+01	5.9773	78.060038	0.000568	5.675193	0.961404	-0.000114
 706	7.0147e+01	5.9555	77.938924	0.000608	6.080564	1.030075	-0.000122
 707	7.0247e+01	5.9364	77.789550	0.000750	7.499363	1.270426	-0.000150
 708	7.0347e+01	5.9155	77.628065	0.000811	8.107419	1.373434	-0.000162
 709	7.0446e+01	5.8955	77.498876	0.000649	6.485935	1.098747	-0.000130
 710	7.0546e+01	5.8758	77.353539	0.000730	7.296677	1.236091	-0.000146
 711	7.0645e+01	5.8567	77.183980	0.000851	8.512790	1.442106	-0.000170
 712	7.0745e+01	5.8367	77.079014	0.000527	5.269822	0.892732	-0.000105
 713	7.0844e+01	5.8163	76.953863	0.000628	6.283250	1.064411	-0.000126
 714	7.0944e+01	5.7961	76.804489	0.000750	7.499363	1.270426	-0.000150
 715	7.1043e+01	5.7764	76.663189	0.000709	7.093992	1.201755	-0.000142
 716	7.1142e+01	5.7552	76.538038	0.000628	6.283250	1.064411	-0.000126
 717	7.1242e+01	5.7363	76.372515	0.000831	8.310105	1.407770	-0.000166
 718	7.1341e+01	5.7162	76.223141	0.000750	7.499363	1.270426	-0.000150
 719	7.1441e+01	5.6964	76.146436	0.000385	3.851024	0.652381	-0.000077
 720	7.1540e+01	5.6760	75.972839	0.000872	8.715475	1.476442	-0.000174
 721	7.1640e+01	5.6561	75.847688	0.000628	6.283250	1.064411	-0.000126
 722	7.1740e+01	5.6363	75.661979	0.000932	9.323532	1.579449	-0.000187
 723	7.1839e+01	5.6178	75.548940	0.000568	5.675193	0.961404	-0.000114
 724	7.1939e+01	5.5968	75.395528	0.000770	7.702048	1.304762	-0.000154
 725	7.2038e+01	5.5767	75.258266	0.000689	6.891306	1.167419	-0.000138
 726	7.2138e+01	5.5575	75.153300	0.000527	5.269822	0.892732	-0.000105
 727	7.2237e+01	5.5379	74.979703	0.000872	8.715475	1.476442	-0.000174
 728	7.2337e+01	5.5163	74.834367	0.000730	7.296677	1.236091	-0.000146
 729	7.2436e+01	5.4973	74.701141	0.000669	6.688621	1.133083	-0.000134
 730	7.2535e+01	5.4778	74.519470	0.000912	9.120846	1.545113	-0.000183
 731	7.2635e+01	5.4577	74.418542	0.000507	5.067137	0.858396	-0.000101
 732	7.2734e+01	5.4382	74.253019	0.000831	8.310105	1.407770	-0.000166
 733	7.2834e+01	5.4170	74.111719	0.000709	7.093992	1.201755	-0.000142
 734	7.2933e+01	5.3979	73.982531	0.000649	6.485935	1.098747	-0.000130
 735	7.3033e+01	5.3774	73.808934	0.000872	8.715475	1.476442	-0.000174
 736	7.3132e+01	5.3579	73.683783	0.000628	6.283250	1.064411	-0.000126
 737	7.3232e+01	5.3381	73.510186	0.000872	8.715475	1.476442	-0.000174
 738	7.3332e+01	5.3180	73.368886	0.000709	7.093992	1.201755	-0.000142
 739	7.3431e+01	5.2980	73.271995	0.000486	4.864451	0.824060	-0.000097
 740	7.3531e+01	5.2773	73.102435	0.000851	8.512790	1.442106	-0.000170
 741	7.3630e+01	5.2569	72.928839	0.000872	8.715475	1.476442	-0.000174
 742	7.3730e+01	5.2387	72.783502	0.000730	7.296677	1.236091	-0.000146
 743	7.3829e+01	5.2189	72.654313	0.000649	6.485935	1.098747	-0.000130
 744	7.3928e+01	5.1989	72.508976	0.000730	7.296677	1.236091	-0.000146
 745	7.4028e+01	5.1788	72.355565	0.000770	7.702048	1.304762	-0.000154
 746	7.4127e+01	5.1583	72.218303	0.000689	6.891306	1.167419	-0.000138
 747	7.4227e+01	5.1388	72.052780	0.000831	8.310105	1.407770	-0.000166
 748	7.4326e+01	5.1189	71.875146	0.000892	8.918161	1.510777	-0.000179
 749	7.4426e+01	5.0991	71.758069	0.000588	5.877879	0.995740	-0.000118
 750	7.4525e+01	5.0782	71.612732	0.000730	7.296677	1.236091	-0.000146
 751	7.4625e+01	5.0582	71.467395	0.000730	7.296677	1.236091	-0.000146
 752	7.4725e+01	5.0391	71.330133	0.000689	6.891306	1.167419	-0.000138
 753	7.4824e+01	5.0201	71.160573	0.000851	8.512790	1.442106	-0.000170
 754	7.4924e+01	5.0000	71.007162	0.000770	7.702048	1.304762	-0.000154
 755	7.5023e+01	4.9800	70.873936	0.000669	6.688621	1.133083	-0.000134
 756	7.5123e+01	4.9602	70.696302	0.000892	8.918161	1.510777	-0.000179
 757	7.5222e+01	4.9388	70.550966	0.000730	7.296677	1.236091	-0.000146
 758	7.5322e+01	4.9192	70.393517	0.000790	7.904734	1.339098	-0.000158
 759	7.5421e+01	4.9000	70.264329	0.000649	6.485935	1.098747	-0.000130
 760	7.5520e+01	4.8808	70.090732	0.000872	8.715475	1.476442	-0.000174
 761	7.5620e+01	4.8601	69.965581	0.000628	6.283250	1.064411	-0.000126
 762	7.5719e+01	4.8404	69.808133	0.000790	7.904734	1.339098	-0.000158
 763	7.5819e+01	4.8196	69.666833	0.000709	7.093992	1.201755	-0.000142
 764	7.5918e+01	4.8006	69.517459	0.000750	7.499363	1.270426	-0.000150
 765	7.6018e+01	4.7801	69.351936	0.000831	8.310105	1.407770	-0.000166
 766	7.6118e+01	4.7595	69.222748	0.000649	6.485935	1.098747	-0.000130
 767	7.6217e+01	4.7402	69.016854	0.001034	10.336959	1.751128	-0.000207
 768	7.6317e+01	4.7201	68.879591	0.000689	6.891306	1.167419	-0.000138
 769	7.6416e+01	4.7005	68.738292	0.000709	7.093992	1.201755	-0.000142
 770	7.6516e+01	4.6806	68.609103	0.000649	6.485935	1.098747	-0.000130
 771	7.6615e+01	4.6606	68.455692	0.000770	7.702048	1.304762	-0.000154
 772	7.6715e+01	4.6406	68.286132	0.000851	8.512790	1.442106	-0.000170
 773	7.6814e+01	4.6212	68.132721	0.000770	7.702048	1.304762	-0.000154
 774	7.6913e+01	4.6011	67.979310	0.000770	7.702048	1.304762	-0.000154
 775	7.7013e+01	4.5819	67.833973	0.000730	7.296677	1.236091	-0.000146
 776	7.7112e+01	4.5620	67.668451	0.000831	8.310105	1.407770	-0.000166
 777	7.7212e+01	4.5405	67.502928	0.000831	8.310105	1.407770	-0.000166
 778	7.7311e+01	4.5211	67.357591	0.000730	7.296677	1.236091	-0.000146
 779	7.7411e+01	4.5010	67.216291	0.000709	7.093992	1.201755	-0.000142
 780	7.7510e+01	4.4817	67.054806	0.000811	8.107419	1.373434	-0.000162
 781	7.7610e+01	4.4621	66.897358	0.000790	7.904734	1.339098	-0.000158
 782	7.7710e+01	4.4413	66.780281	0.000588	5.877879	0.995740	-0.000118
 783	7.7809e+01	4.4212	66.590535	0.000953	9.526217	1.613785	-0.000191
 784	7.7909e+01	4.4012	66.420976	0.000851	8.512790	1.442106	-0.000170
 785	7.8008e+01	4.3827	66.316010	0.000527	5.269822	0.892732	-0.000105
 786	7.8108e+01	4.3617	66.162599	0.000770	7.702048	1.304762	-0.000154
 787	7.8207e+01	4.3426	65.989002	0.000872	8.715475	1.476442	-0.000174
 788	7.8306e+01	4.3214	65.827517	0.000811	8.107419	1.373434	-0.000162
 789	7.8406e+01	4.3024	65.686217	0.000709	7.093992	1.201755	-0.000142
 790	7.8505e+01	4.2825	65.516657	0.000851	8.512790	1.442106	-0.000170
 791	7.8605e+01	4.2629	65.387469	0.000649	6.485935	1.098747	-0.000130
 792	7.8704e+01	4.2422	65.217909	0.000851	8.512790	1.442106	-0.000170
 793	7.8804e+01	4.2225	65.072572	0.000730	7.296677	1.236091	-0.000146
 794	7.8903e+01	4.2023	64.903013	0.000851	8.512790	1.442106	-0.000170
 795	7.9003e+01	4.1822	64.769787	0.000669	6.688621	1.133083	-0.000134
 796	7.9103e+01	4.1624	64.608302	0.000811	8.107419	1.373434	-0.000162
 797	7.9202e+01	4.1424	64.434705	0.000872	8.715475	1.476442	-0.000174
 798	7.9302e+01	4.1225	64.285331	0.000750	7.499363	1.270426	-0.000150
 799	7.9401e+01	4.1024	64.115771	0.000851	8.512790	1.442106	-0.000170
 800	7.9501e+01	4.0830	63.986583	0.000649	6.485935	1.098747	-0.000130
 801	7.9600e+01	4.0632	63.804912	0.000912	9.120846	1.545113	-0.000183
 802	7.9700e+01	4.0427	63.655538	0.000750	7.499363	1.270426	-0.000150
 803	7.9799e+01	4.0231	63.514238	0.000709	7.093992	1.201755	-0.000142
 804	7.9898e+01	4.0034	63.336604	0.000892	8.918161	1.510777	-0.000179
 805	7.9998e+01	3.9841	63.203379	0.000669	6.688621	1.133083	-0.000134
 806	8.0097e+01	3.9626	63.029782	0.000872	8.715475	1.476442	-0.000174
 807	8.0197e+01	3.9437	62.848111	0.000912	9.120846	1.545113	-0.000183
 808	8.0296e+01	3.9241	62.735071	0.000568	5.675193	0.961404	-0.000114
 809	8.0396e+01	3.9035	62.545325	0.000953	9.526217	1.613785	-0.000191
 810	8.0496e+01	3.8840	62.391914	0.000770	7.702048	1.304762	-0.000154
 811	8.0595e+01	3.8635	62.238503	0.000770	7.702048	1.304762	-0.000154
 812	8.0695e+01	3.8448	62.085092	0.000770	7.702048	1.304762	-0.000154
 813	8.0794e+01	3.8240	61.911495	0.000872	8.715475	1.476442	-0.000174
 814	8.0894e+01	3.8032	61.782307	0.000649	6.485935	1.098747	-0.000130
 815	8.0993e+01	3.7844	61.576413	0.001034	10.336959	1.751128	-0.000207
 816	8.1093e+01	3.7646	61.439150	0.000689	6.891306	1.167419	-0.000138
 817	8.1192e+01	3.7453	61.318036	0.000608	6.080564	1.030075	-0.000122
 818	8.1291e+01	3.7240	61.116179	0.001013	10.134274	1.716792	-0.000203
 819	8.1391e+01	3.7045	60.962768	0.000770	7.702048	1.304762	-0.000154
 820	8.1490e+01	3.6845	60.801283	0.000811	8.107419	1.373434	-0.000162
 821	8.1590e+01	3.6657	60.684206	0.000588	5.877879	0.995740	-0.000118
 822	8.1689e+01	3.6445	60.494460	0.000953	9.526217	1.613785	-0.000191
 823	8.1789e+01	3.6257	60.345086	0.000750	7.499363	1.270426	-0.000150
 824	8.1888e+01	3.6057	60.187638	0.000790	7.904734	1.339098	-0.000158
 825	8.1988e+01	3.5862	60.046338	0.000709	7.093992	1.201755	-0.000142
 826	8.2088e+01	3.5654	59.816222	0.001155	11.553072	1.957143	-0.000231
 827	8.2187e+01	3.5453	59.711256	0.000527	5.269822	0.892732	-0.000105
 828	8.2287e+01	3.5255	59.533622	0.000892	8.918161	1.510777	-0.000179
 829	8.2386e+01	3.5053	59.351951	0.000912	9.120846	1.545113	-0.000183
 830	8.2486e+01	3.4864	59.234874	0.000588	5.877879	0.995740	-0.000118
 831	8.2585e+01	3.4657	59.065314	0.000851	8.512790	1.442106	-0.000170
 832	8.2684e+01	3.4458	58.891718	0.000872	8.715475	1.476442	-0.000174
 833	8.2784e+01	3.4264	58.762529	0.000649	6.485935	1.098747	-0.000130
 834	8.2883e+01	3.4057	58.588932	0.000872	8.715475	1.476442	-0.000174
 835	8.2983e+01	3.3865	58.403224	0.000932	9.323532	1.579449	-0.000187
 836	8.3082e+01	3.3660	58.229627	0.000872	8.715475	1.476442	-0.000174
 837	8.3182e+01	3.3461	58.096402	0.000669	6.688621	1.133083	-0.000134
 838	8.3281e+01	3.3268	57.930879	0.000831	8.310105	1.407770	-0.000166
 839	8.3381e+01	3.3071	57.737097	0.000973	9.728903	1.648121	-0.000195
 840	8.3481e+01	3.2870	57.595797	0.000709	7.093992	1.201755	-0.000142
 841	8.3580e+01	3.2664	57.410089	0.000932	9.323532	1.579449	-0.000187
 842	8.3680e+01	3.2473	57.268789	0.000709	7.093992	1.201755	-0.000142
 843	8.3779e+01	3.2267	57.099229	0.000851	8.512790	1.442106	-0.000170
 844	8.3879e+01	3.2072	56.929670	0.000851	8.512790	1.442106	-0.000170
 845	8.3978e+01	3.1874	56.796444	0.000669	6.688621	1.133083	-0.000134
 846	8.4078e+01	3.1667	56.606699	0.000953	9.526217	1.613785	-0.000191
 847	8.4177e+01	3.1472	56.461362	0.000730	7.296677	1.236091	-0.000146
 848	8.4276e+01	3.1269	56.275654	0.000932	9.323532	1.579449	-0.000187
 849	8.4376e+01	3.1078	56.118205	0.000790	7.904734	1.339098	-0.000158
 850	8.4475e+01	3.0871	55.956720	0.000811	8.107419	1.373434	-0.000162
 851	8.4575e+01	3.0669	55.811383	0.000730	7.296677	1.236091	-0.000146
 852	8.4674e+01	3.0459	55.597415	0.001074	10.742330	1.819800	-0.000215
 853	8.4774e+01	3.0274	55.464189	0.000669	6.688621	1.133083	-0.000134
 854	8.4874e+01	3.0070	55.246184	0.001095	10.945016	1.854136	-0.000219
 855	8.4973e+01	2.9876	55.076624	0.000851	8.512790	1.442106	-0.000170
 856	8.5073e+01	2.9671	54.943399	0.000669	6.688621	1.133083	-0.000134
 857	8.5172e+01	2.9482	54.785951	0.000790	7.904734	1.339098	-0.000158
 858	8.5272e+01	2.9279	54.612354	0.000872	8.715475	1.476442	-0.000174
 859	8.5371e+01	2.9084	54.426645	0.000932	9.323532	1.579449	-0.000187
 860	8.5471e+01	2.8875	54.261123	0.000831	8.310105	1.407770	-0.000166
 861	8.5570e+01	2.8683	54.095600	0.000831	8.310105	1.407770	-0.000166
 862	8.5669e+01	2.8474	53.881632	0.001074	10.742330	1.819800	-0.000215
 863	8.5769e+01	2.8286	53.740332	0.000709	7.093992	1.201755	-0.000142
 864	8.5868e+01	2.8082	53.590958	0.000750	7.499363	1.270426	-0.000150
 865	8.5968e+01	2.7881	53.397176	0.000973	9.728903	1.648121	-0.000195
 866	8.6067e+01	2.7685	53.223579	0.000872	8.715475	1.476442	-0.000174
 867	8.6167e+01	2.7479	53.066131	0.000790	7.904734	1.339098	-0.000158
 868	8.6266e+01	2.7279	52.860237	0.001034	10.336959	1.751128	-0.000207
 869	8.6366e+01	2.7079	52.751234	0.000547	5.472508	0.927068	-0.000110
 870	8.6466e+01	2.6882	52.541303	0.001054	10.539645	1.785464	-0.000211
 871	8.6565e+01	2.6688	52.359632	0.000912	9.120846	1.545113	-0.000183
 872	8.6665e+01	2.6481	52.177961	0.000912	9.120846	1.545113	-0.000183
 873	8.6764e+01	2.6293	51.980141	0.000993	9.931588	1.682457	-0.000199
 874	8.6864e+01	2.6088	51.814619	0.000831	8.310105	1.407770	-0.000166
 875	8.6963e+01	2.5892	51.665245	0.000750	7.499363	1.270426	-0.000150
 876	8.7063e+01	2.5697	51.491648	0.000872	8.715475	1.476442	-0.000174
 877	8.7162e+01	2.5491	51.301902	0.000953	9.526217	1.613785	-0.000191
 878	8.7261e+01	2.5295	51.128306	0.000872	8.715475	1.476442	-0.000174
 879	8.7361e+01	2.5101	50.958746	0.000851	8.512790	1.442106	-0.000170
 880	8.7460e+01	2.4903	50.756889	0.001013	10.134274	1.716792	-0.000203
 881	8.7560e+01	2.4691	50.619626	0.000689	6.891306	1.167419	-0.000138
 882	8.7659e+01	2.4492	50.429881	0.000953	9.526217	1.613785	-0.000191
 883	8.7759e+01	2.4290	50.228024	0.001013	10.134274	1.716792	-0.000203
 884	8.7859e+01	2.4105	50.058465	0.000851	8.512790	1.442106	-0.000170
 885	8.7958e+01	2.3900	49.872756	0.000932	9.323532	1.579449	-0.000187
 886	8.8058e+01	2.3695	49.674937	0.000993	9.931588	1.682457	-0.000199
 887	8.8157e+01	2.3505	49.541711	0.000669	6.688621	1.133083	-0.000134
 888	8.8257e+01	2.3290	49.335817	0.001034	10.336959	1.751128	-0.000207
 889	8.8356e+01	2.3093	49.194518	0.000709	7.093992	1.201755	-0.000142
 890	8.8456e+01	2.2903	49.045144	0.000750	7.499363	1.270426	-0.000150
 891	8.8555e+01	2.2691	48.810990	0.001176	11.755758	1.991479	-0.000235
 892	8.8654e+01	2.2507	48.617207	0.000973	9.728903	1.648121	-0.000195
 893	8.8754e+01	2.2301	48.439573	0.000892	8.918161	1.510777	-0.000179
 894	8.8853e+01	2.2104	48.270013	0.000851	8.512790	1.442106	-0.000170
 895	8.8953e+01	2.1912	48.064120	0.001034	10.336959	1.751128	-0.000207
 896	8.9052e+01	2.1703	47.914746	0.000750	7.499363	1.270426	-0.000150
 897	8.9152e+01	2.1517	47.733074	0.000912	9.120846	1.545113	-0.000183
 898	8.9251e+01	2.1303	47.551403	0.000912	9.120846	1.545113	-0.000183
 899	8.9351e+01	2.1110	47.373769	0.000892	8.918161	1.510777	-0.000179
 900	8.9451e+01	2.0909	47.204210	0.000851	8.512790	1.442106	-0.000170
 901	8.9550e+01	2.0712	46.998316	0.001034	10.336959	1.751128	-0.000207
 902	8.9650e+01	2.0520	46.820682	0.000892	8.918161	1.510777	-0.000179
 903	8.9749e+01	2.0313	46.659196	0.000811	8.107419	1.373434	-0.000162
 904	8.9849e+01	2.0114	46.453302	0.001034	10.336959	1.751128	-0.000207
 905	8.9948e+01	1.9912	46.295854	0.000790	7.904734	1.339098	-0.000158
 906	9.0047e+01	1.9720	46.085923	0.001054	10.539645	1.785464	-0.000211
 907	9.0147e+01	1.9521	45.859843	0.001135	11.350387	1.922808	-0.000227
 908	9.0246e+01	1.9315	45.702395	0.000790	7.904734	1.339098	-0.000158
 909	9.0346e+01	1.9112	45.553021	0.000750	7.499363	1.270426	-0.000150
 910	9.0445e+01	1.8908	45.318867	0.001176	11.755758	1.991479	-0.000235
 911	9.0545e+01	1.8725	45.137196	0.000912	9.120846	1.545113	-0.000183
 912	9.0644e+01	1.8514	44.971674	0.000831	8.310105	1.407770	-0.000166
 913	9.0744e+01	1.8320	44.822300	0.000750	7.499363	1.270426	-0.000150
 914	9.0844e+01	1.8132	44.580071	0.001216	12.161129	2.060151	-0.000243
 915	9.0943e+01	1.7934	44.402437	0.000892	8.918161	1.510777	-0.000179
 916	9.1043e+01	1.7722	44.220766	0.000912	9.120846	1.545113	-0.000183
 917	9.1142e+01	1.7532	44.006798	0.001074	10.742330	1.819800	-0.000215
 918	9.1242e+01	1.7318	43.857424	0.000750	7.499363	1.270426	-0.000150
 919	9.1341e+01	1.7120	43.667679	0.000953	9.526217	1.613785	-0.000191
 920	9.1441e+01	1.6931	43.457748	0.001054	10.539645	1.785464	-0.000211
 921	9.1540e+01	1.6733	43.259928	0.000993	9.931588	1.682457	-0.000199
 922	9.1639e+01	1.6524	43.066145	0.000973	9.728903	1.648121	-0.000195
 923	9.1739e+01	1.6322	42.900623	0.000831	8.310105	1.407770	-0.000166
 924	9.1838e+01	1.6119	42.706840	0.000973	9.728903	1.648121	-0.000195
 925	9.1938e+01	1.5933	42.525169	0.000912	9.120846	1.545113	-0.000183
 926	9.2037e+01	1.5733	42.323313	0.001013	10.134274	1.716792	-0.000203
 927	9.2137e+01	1.5542	42.153753	0.000851	8.512790	1.442106	-0.000170
 928	9.2237e+01	1.5334	41.964007	0.000953	9.526217	1.613785	-0.000191
 929	9.2336e+01	1.5128	41.725816	0.001196	11.958443	2.025815	-0.000239
 930	9.2436e+01	1.4924	41.588554	0.000689	6.891306	1.167419	-0.000138
 931	9.2535e+01	1.4724	41.362474	0.001135	11.350387	1.922808	-0.000227
 932	9.2635e+01	1.4536	41.188877	0.000872	8.715475	1.476442	-0.000174
 933	9.2734e+01	1.4332	41.019318	0.000851	8.512790	1.442106	-0.000170
 934	9.2834e+01	1.4135	40.845721	0.000872	8.715475	1.476442	-0.000174
 935	9.2933e+01	1.3937	40.623678	0.001115	11.147701	1.888472	-0.000223
 936	9.3032e+01	1.3734	40.454119	0.000851	8.512790	1.442106	-0.000170
 937	9.3132e+01	1.3535	40.268410	0.000932	9.323532	1.579449	-0.000187
 938	9.3231e+01	1.3343	40.058479	0.001054	10.539645	1.785464	-0.000211
 939	9.3331e+01	1.3136	39.860660	0.000993	9.931588	1.682457	-0.000199
 940	9.3430e+01	1.2936	39.670914	0.000953	9.526217	1.613785	-0.000191
 941	9.3530e+01	1.2751	39.493280	0.000892	8.918161	1.510777	-0.000179
 942	9.3629e+01	1.2550	39.299498	0.000973	9.728903	1.648121	-0.000195
 943	9.3729e+01	1.2356	39.113790	0.000932	9.323532	1.579449	-0.000187
 944	9.3829e+01	1.2148	38.928081	0.000932	9.323532	1.579449	-0.000187
 945	9.3928e+01	1.1954	38.706039	0.001115	11.147701	1.888472	-0.000223
 946	9.4028e+01	1.1747	38.548591	0.000790	7.904734	1.339098	-0.000158
 947	9.4127e+01	1.1549	38.370957	0.000892	8.918161	1.510777	-0.000179
 948	9.4227e+01	1.1353	38.197360	0.000872	8.715475	1.476442	-0.000174
 949	9.4326e+01	1.1157	37.975317	0.001115	11.147701	1.888472	-0.000223
 950	9.4425e+01	1.0959	37.785572	0.000953	9.526217	1.613785	-0.000191
 951	9.4525e+01	1.0749	37.583715	0.001013	10.134274	1.716792	-0.000203
 952	9.4624e+01	1.0552	37.385896	0.000993	9.931588	1.682457	-0.000199
 953	9.4724e+01	1.0355	37.184039	0.001013	10.134274	1.716792	-0.000203
 954	9.4823e+01	1.0164	37.018516	0.000831	8.310105	1.407770	-0.000166
 955	9.4923e+01	0.9951	36.820696	0.000993	9.931588	1.682457	-0.000199
 956	9.5022e+01	0.9760	36.651137	0.000851	8.512790	1.442106	-0.000170
 957	9.5122e+01	0.9556	36.429094	0.001115	11.147701	1.888472	-0.000223
 958	9.5222e+01	0.9357	36.279720	0.000750	7.499363	1.270426	-0.000150
 959	9.5321e+01	0.9161	36.073826	0.001034	10.336959	1.751128	-0.000207
 960	9.5421e+01	0.8950	35.843710	0.001155	11.553072	1.957143	-0.000231
 961	9.5520e+01	0.8771	35.714521	0.000649	6.485935	1.098747	-0.000130
 962	9.5620e+01	0.8557	35.492479	0.001115	11.147701	1.888472	-0.000223
 963	9.5719e+01	0.8368	35.310808	0.000912	9.120846	1.545113	-0.000183
 964	9.5819e+01	0.8157	35.104914	0.001034	10.336959	1.751128	-0.000207
 965	9.5918e+01	0.7953	34.882871	0.001115	11.147701	1.888472	-0.000223
 966	9.6017e+01	0.7771	34.737534	0.000730	7.296677	1.236091	-0.000146
 967	9.6117e+01	0.7568	34.547789	0.000953	9.526217	1.613785	-0.000191
 968	9.6216e+01	0.7362	34.333821	0.001074	10.742330	1.819800	-0.000215
 969	9.6316e+01	0.7169	34.188484	0.000730	7.296677	1.236091	-0.000146
 970	9.6415e+01	0.6962	33.966442	0.001115	11.147701	1.888472	-0.000223
 971	9.6515e+01	0.6777	33.756510	0.001054	10.539645	1.785464	-0.000211
 972	9.6615e+01	0.6565	33.558691	0.000993	9.931588	1.682457	-0.000199
 973	9.6714e+01	0.6379	33.348760	0.001054	10.539645	1.785464	-0.000211
 974	9.6814e+01	0.6171	33.183237	0.000831	8.310105	1.407770	-0.000166
 975	9.6913e+01	0.5965	32.961195	0.001115	11.147701	1.888472	-0.000223
 976	9.7013e+01	0.5774	32.771449	0.000953	9.526217	1.613785	-0.000191
 977	9.7112e+01	0.5579	32.601890	0.000851	8.512790	1.442106	-0.000170
 978	9.7212e+01	0.5377	32.444441	0.000790	7.904734	1.339098	-0.000158
 979	9.7311e+01	0.5161	32.222399	0.001115	11.147701	1.888472	-0.000223
 980	9.7410e+01	0.4975	32.012468	0.001054	10.539645	1.785464	-0.000211
 981	9.7510e+01	0.4774	31.838871	0.000872	8.715475	1.476442	-0.000174
 982	9.7609e+01	0.4572	31.641051	0.000993	9.931588	1.682457	-0.000199
 983	9.7709e+01	0.4371	31.427083	0.001074	10.742330	1.819800	-0.000215
 984	9.7808e+01	0.4188	31.237338	0.000953	9.526217	1.613785	-0.000191
 985	9.7908e+01	0.3986	31.075852	0.000811	8.107419	1.373434	-0.000162
 986	9.8007e+01	0.3780	30.890144	0.000932	9.323532	1.579449	-0.000187
 987	9.8107e+01	0.3581	30.684250	0.001034	10.336959	1.751128	-0.000207
 988	9.8207e+01	0.3385	30.458171	0.001135	11.350387	1.922808	-0.000227
 989	9.8306e+01	0.3178	30.312834	0.000730	7.296677	1.236091	-0.000146
 990	9.8406e+01	0.2975	30.078680	0.001176	11.755758	1.991479	-0.000235
 991	9.8505e+01	0.2781	29.941417	0.000689	6.891306	1.167419	-0.000138
 992	9.8605e+01	0.2581	29.703226	0.001196	11.958443	2.025815	-0.000239
 993	9.8704e+01	0.2392	29.525592	0.000892	8.918161	1.510777	-0.000179
 994	9.8803e+01	0.2186	29.307587	0.001095	10.945016	1.854136	-0.000219
 995	9.8903e+01	0.1985	29.125916	0.000912	9.120846	1.545113	-0.000183
 996	9.9002e+01	0.1785	28.911948	0.001074	10.742330	1.819800	-0.000215
 997	9.9102e+01	0.1591	28.766611	0.000730	7.296677	1.236091	-0.000146
 998	9.9201e+01	0.1385	28.516308	0.001257	12.566500	2.128823	-0.000252
 999	9.9301e+01	0.1182	28.354823	0.000811	8.107419	1.373434	-0.000162
1000	9.9400e+01	0.0993	28.140855	0.001074	10.742330	1.819800	-0.000215
1001	9.9500e+01	0.0788	27.926886	0.001074	10.742330	1.819800	-0.000215
1002	9.9600e+01	0.0592	27.720993	0.001034	10.336959	1.751128	-0.000207
1003	9.9699e+01	0.0385	27.527210	0.000973	9.728903	1.648121	-0.000195
1004	9.9799e+01	0.0201	27.353613	0.000872	8.715475	1.476442	-0.000174
1005	9.9898e+01	-0.0002	27.175979	0.000892	8.918161	1.510777	-0.000179
1006	9.9998e+01	-0.0188	27.010457	0.000831	8.310105	1.407770	-0.000166
1007	1.0010e+02	-0.0388	26.800526	0.001054	10.539645	1.785464	-0.000211
1008	1.0020e+02	-0.0584	26.582520	0.001095	10.945016	1.854136	-0.000219
1009	1.0030e+02	-0.0780	26.400849	0.000912	9.120846	1.545113	-0.000183
1010	1.0040e+02	-0.0981	26.215141	0.000932	9.323532	1.579449	-0.000187
1011	1.0050e+02	-0.1183	26.045581	0.000851	8.512790	1.442106	-0.000170
1012	1.0059e+02	-0.1385	25.803353	0.001216	12.161129	2.060151	-0.000243
1013	1.0069e+02	-0.1585	25.633793	0.000851	8.512790	1.442106	-0.000170
1014	1.0079e+02	-0.1778	25.419825	0.001074	10.742330	1.819800	-0.000215
1015	1.0089e+02	-0.1990	25.226043	0.000973	9.728903	1.648121	-0.000195
1016	1.0099e+02	-0.2184	25.020149	0.001034	10.336959	1.751128	-0.000207
1017	1.0109e+02	-0.2381	24.790032	0.001155	11.553072	1.957143	-0.000231
1018	1.0119e+02	-0.2583	24.632584	0.000790	7.904734	1.339098	-0.000158
1019	1.0129e+02	-0.2783	24.406504	0.001135	11.350387	1.922808	-0.000227
1020	1.0139e+02	-0.2979	24.253093	0.000770	7.702048	1.304762	-0.000154
1021	1.0149e+02	-0.3175	24.043162	0.001054	10.539645	1.785464	-0.000211
1022	1.0159e+02	-0.3376	23.861491	0.000912	9.120846	1.545113	-0.000183
1023	1.0169e+02	-0.3571	23.615225	0.001236	12.363814	2.094487	-0.000248
1024	1.0179e+02	-0.3781	23.486037	0.000649	6.485935	1.098747	-0.000130
1025	1.0189e+02	-0.3974	23.268032	0.001095	10.945016	1.854136	-0.000219
1026	1.0199e+02	-0.4173	23.062138	0.001034	10.336959	1.751128	-0.000207
1027	1.0209e+02	-0.4385	22.803761	0.001297	12.971871	2.197494	-0.000260
1028	1.0219e+02	-0.4578	22.638239	0.000831	8.310105	1.407770	-0.000166
1029	1.0229e+02	-0.4781	22.408122	0.001155	11.553072	1.957143	-0.000231
1030	1.0239e+02	-0.4968	22.250674	0.000790	7.904734	1.339098	-0.000158
1031	1.0248e+02	-0.5163	22.020557	0.001155	11.553072	1.957143	-0.000231
1032	1.0258e+02	-0.5368	21.822737	0.000993	9.931588	1.682457	-0.000199
1033	1.0268e+02	-0.5558	21.620880	0.001013	10.134274	1.716792	-0.000203
1034	1.0278e+02	-0.5770	21.439209	0.000912	9.120846	1.545113	-0.000183
1035	1.0288e+02	-0.5962	21.213130	0.001135	11.350387	1.922808	-0.000227
1036	1.0298e+02	-0.6171	21.047607	0.000831	8.310105	1.407770	-0.000166
1037	1.0308e+02	-0.6377	20.809416	0.001196	11.958443	2.025815	-0.000239
1038	1.0318e+02	-0.6564	20.603522	0.001034	10.336959	1.751128	-0.000207
1039	1.0328e+02	-0.6761	20.421851	0.000912	9.120846	1.545113	-0.000183
1040	1.0338e+02	-0.6973	20.195772	0.001135	11.350387	1.922808	-0.000227
1041	1.0348e+02	-0.7170	19.985840	0.001054	10.539645	1.785464	-0.000211
1042	1.0358e+02	-0.7363	19.808206	0.000892	8.918161	1.510777	-0.000179
1043	1.0368e+02	-0.7564	19.590201	0.001095	10.945016	1.854136	-0.000219
1044	1.0378e+02	-0.7758	19.404493	0.000932	9.323532	1.579449	-0.000187
1045	1.0388e+02	-0.7966	19.202636	0.001013	10.134274	1.716792	-0.000203
1046	1.0398e+02	-0.8163	18.972519	0.001155	11.553072	1.957143	-0.000231
1047	1.0408e+02	-0.8360	18.786811	0.000932	9.323532	1.579449	-0.000187
1048	1.0418e+02	-0.8557	18.560732	0.001135	11.350387	1.922808	-0.000227
1049	1.0428e+02	-0.8755	18.387135	0.000872	8.715475	1.476442	-0.000174
1050	1.0438e+02	-0.8962	18.165092	0.001115	11.147701	1.888472	-0.000223
1051	1.0447e+02	-0.9155	17.963235	0.001013	10.134274	1.716792	-0.000203
1052	1.0457e+02	-0.9354	17.781564	0.000912	9.120846	1.545113	-0.000183
1053	1.0467e+02	-0.9547	17.547410	0.001176	11.755758	1.991479	-0.000235
1054	1.0477e+02	-0.9756	17.329405	0.001095	10.945016	1.854136	-0.000219
1055	1.0487e+02	-0.9960	17.163883	0.000831	8.310105	1.407770	-0.000166
1056	1.0497e+02	-1.0155	16.962026	0.001013	10.134274	1.716792	-0.000203
1057	1.0507e+02	-1.0349	16.780355	0.000912	9.120846	1.545113	-0.000183
1058	1.0517e+02	-1.0548	16.550238	0.001155	11.553072	1.957143	-0.000231
1059	1.0527e+02	-1.0750	16.348381	0.001013	10.134274	1.716792	-0.000203
1060	1.0537e+02	-1.0953	16.142487	0.001034	10.336959	1.751128	-0.000207
1061	1.0547e+02	-1.1151	15.912371	0.001155	11.553072	1.957143	-0.000231
1062	1.0557e+02	-1.1351	15.666105	0.001236	12.363814	2.094487	-0.000248
1063	1.0567e+02	-1.1555	15.488471	0.000892	8.918161	1.510777	-0.000179
1064	1.0577e+02	-1.1745	15.278540	0.001054	10.539645	1.785464	-0.000211
1065	1.0587e+02	-1.1951	15.080721	0.000993	9.931588	1.682457	-0.000199
1066	1.0597e+02	-1.2151	14.858678	0.001115	11.147701	1.888472	-0.000223
1067	1.0607e+02	-1.2350	14.693156	0.000831	8.310105	1.407770	-0.000166
1068	1.0617e+02	-1.2543	14.479187	0.001074	10.742330	1.819800	-0.000215
1069	1.0627e+02	-1.2740	14.293479	0.000932	9.323532	1.579449	-0.000187
1070	1.0637e+02	-1.2943	14.107771	0.000932	9.323532	1.579449	-0.000187
1071	1.0647e+02	-1.3146	13.861506	0.001236	12.363814	2.094487	-0.000248
1072	1.0656e+02	-1.3338	13.675797	0.000932	9.323532	1.579449	-0.000187
1073	1.0666e+02	-1.3544	13.417421	0.001297	12.971871	2.197494	-0.000260
1074	1.0676e+02	-1.3738	13.223638	0.000973	9.728903	1.648121	-0.000195
1075	1.0686e+02	-1.3946	13.029856	0.000973	9.728903	1.648121	-0.000195
1076	1.0696e+02	-1.4129	12.848184	0.000912	9.120846	1.545113	-0.000183
1077	1.0706e+02	-1.4343	12.630179	0.001095	10.945016	1.854136	-0.000219
1078	1.0716e+02	-1.4546	12.440434	0.000953	9.526217	1.613785	-0.000191
1079	1.0726e+02	-1.4734	12.206280	0.001176	11.755758	1.991479	-0.000235
1080	1.0736e+02	-1.4936	12.000386	0.001034	10.336959	1.751128	-0.000207
1081	1.0746e+02	-1.5134	11.766232	0.001176	11.755758	1.991479	-0.000235
1082	1.0756e+02	-1.5330	11.588598	0.000892	8.918161	1.510777	-0.000179
1083	1.0766e+02	-1.5537	11.374630	0.001074	10.742330	1.819800	-0.000215
1084	1.0776e+02	-1.5729	11.144513	0.001155	11.553072	1.957143	-0.000231
1085	1.0786e+02	-1.5931	10.954768	0.000953	9.526217	1.613785	-0.000191
1086	1.0796e+02	-1.6125	10.728688	0.001135	11.350387	1.922808	-0.000227
1087	1.0806e+02	-1.6325	10.542980	0.000932	9.323532	1.579449	-0.000187
1088	1.0816e+02	-1.6528	10.345160	0.000993	9.931588	1.682457	-0.000199
1089	1.0826e+02	-1.6716	10.155415	0.000953	9.526217	1.613785	-0.000191
1090	1.0836e+02	-1.6929	9.905113	0.001257	12.566500	2.128823	-0.000252
1091	1.0845e+02	-1.7129	9.743627	0.000811	8.107419	1.373434	-0.000162
1092	1.0855e+02	-1.7334	9.525622	0.001095	10.945016	1.854136	-0.000219
1093	1.0865e+02	-1.7529	9.283394	0.001216	12.161129	2.060151	-0.000243
1094	1.0875e+02	-1.7725	9.081537	0.001013	10.134274	1.716792	-0.000203
1095	1.0885e+02	-1.7925	8.879680	0.001013	10.134274	1.716792	-0.000203
1096	1.0895e+02	-1.8132	8.698009	0.000912	9.120846	1.545113	-0.000183
1097	1.0905e+02	-1.8316	8.467892	0.001155	11.553072	1.957143	-0.000231
1098	1.0915e+02	-1.8509	8.257961	0.001054	10.539645	1.785464	-0.000211
1099	1.0925e+02	-1.8724	8.080327	0.000892	8.918161	1.510777	-0.000179
1100	1.0935e+02	-1.8922	7.842136	0.001196	11.958443	2.025815	-0.000239
1101	1.0945e+02	-1.9119	7.636242	0.001034	10.336959	1.751128	-0.000207
1102	1.0955e+02	-1.9318	7.462645	0.000872	8.715475	1.476442	-0.000174
1103	1.0965e+02	-1.9514	7.228492	0.001176	11.755758	1.991479	-0.000235
1104	1.0975e+02	-1.9714	7.034709	0.000973	9.728903	1.648121	-0.000195
1105	1.0985e+02	-1.9912	6.853038	0.000912	9.120846	1.545113	-0.000183
1106	1.0995e+02	-2.0110	6.582550	0.001358	13.579927	2.300502	-0.000272
1107	1.1005e+02	-2.0320	6.437213	0.000730	7.296677	1.236091	-0.000146
1108	1.1015e+02	-2.0514	6.223245	0.001074	10.742330	1.819800	-0.000215
1109	1.1025e+02	-2.0722	5.989091	0.001176	11.755758	1.991479	-0.000235
1110	1.1035e+02	-2.0908	5.811457	0.000892	8.918161	1.510777	-0.000179
1111	1.1044e+02	-2.1114	5.613637	0.000993	9.931588	1.682457	-0.000199
1112	1.1054e+02	-2.1313	5.367372	0.001236	12.363814	2.094487	-0.000248
1113	1.1064e+02	-2.1509	5.189738	0.000892	8.918161	1.510777	-0.000179
1114	1.1074e+02	-2.1709	4.975770	0.001074	10.742330	1.819800	-0.000215
1115	1.1084e+02	-2.1918	4.826396	0.000750	7.499363	1.270426	-0.000150
1116	1.1094e+02	-2.2113	4.588205	0.001196	11.958443	2.025815	-0.000239
1117	1.1104e+02	-2.2305	4.398459	0.000953	9.526217	1.613785	-0.000191
1118	1.1114e+02	-2.2508	4.184491	0.001074	10.742330	1.819800	-0.000215
1119	1.1124e+02	-2.2690	3.990709	0.000973	9.728903	1.648121	-0.000195
1120	1.1134e+02	-2.2896	3.776740	0.001074	10.742330	1.819800	-0.000215
1121	1.1144e+02	-2.3102	3.599107	0.000892	8.918161	1.510777	-0.000179
1122	1.1154e+02	-2.3301	3.381101	0.001095	10.945016	1.854136	-0.000219
1123	1.1164e+02	-2.3500	3.155022	0.001135	11.350387	1.922808	-0.000227
1124	1.1174e+02	-2.3698	2.989499	0.000831	8.310105	1.407770	-0.000166
1125	1.1184e+02	-2.3888	2.783605	0.001034	10.336959	1.751128	-0.000207
1126	1.1194e+02	-2.4101	2.626157	0.000790	7.904734	1.339098	-0.000158
1127	1.1204e+02	-2.4304	2.420263	0.001034	10.336959	1.751128	-0.000207
1128	1.1214e+02	-2.4496	2.186109	0.001176	11.755758	1.991479	-0.000235
1129	1.1224e+02	-2.4699	1.984252	0.001013	10.134274	1.716792	-0.000203
1130	1.1234e+02	-2.4893	1.782395	0.001013	10.134274	1.716792	-0.000203
1131	1.1244e+02	-2.5089	1.604761	0.000892	8.918161	1.510777	-0.000179
1132	1.1253e+02	-2.5290	1.370608	0.001176	11.755758	1.991479	-0.000235
1133	1.1263e+02	-2.5487	1.152602	0.001095	10.945016	1.854136	-0.000219
1134	1.1273e+02	-2.5685	0.987080	0.000831	8.310105	1.407770	-0.000166
1135	1.1283e+02	-2.5879	0.821557	0.000831	8.310105	1.407770	-0.000166
1136	1.1293e+02	-2.6077	0.591440	0.001155	11.553072	1.957143	-0.000231
1137	1.1303e+02	-2.6285	0.381509	0.001054	10.539645	1.785464	-0.000211
1138	1.1313e+02	-2.6497	0.159467	0.001115	11.147701	1.888472	-0.000223
1139	1.1323e+02	-2.6685	0.006056	0.000770	7.702048	1.304762	-0.000154
1140	1.1333e+02	-2.6881	-0.211950	0.001095	10.945016	1.854136	-0.000219
1141	1.1343e+02	-2.7087	-0.425918	0.001074	10.742330	1.819800	-0.000215
1142	1.1353e+02	-2.7292	-0.591440	0.000831	8.310105	1.407770	-0.000166
1143	1.1363e+02	-2.7474	-0.785223	0.000973	9.728903	1.648121	-0.000195
1144	1.1373e+02	-2.7680	-1.019377	0.001176	11.755758	1.991479	-0.000235
1145	1.1383e+02	-2.7883	-1.180862	0.000811	8.107419	1.373434	-0.000162
1146	1.1393e+02	-2.8088	-1.382719	0.001013	10.134274	1.716792	-0.000203
1147	1.1403e+02	-2.8275	-1.576502	0.000973	9.728903	1.648121	-0.000195
1148	1.1413e+02	-2.8476	-1.778358	0.001013	10.134274	1.716792	-0.000203
1149	1.1423e+02	-2.8696	-1.964067	0.000932	9.323532	1.579449	-0.000187
1150	1.1433e+02	-2.8880	-2.165923	0.001013	10.134274	1.716792	-0.000203
1151	1.1442e+02	-2.9079	-2.383929	0.001095	10.945016	1.854136	-0.000219
1152	1.1452e+02	-2.9269	-2.545414	0.000811	8.107419	1.373434	-0.000162
1153	1.1462e+02	-2.9473	-2.751308	0.001034	10.336959	1.751128	-0.000207
1154	1.1472e+02	-2.9672	-2.953165	0.001013	10.134274	1.716792	-0.000203
1155	1.1482e+02	-2.9863	-3.163096	0.001054	10.539645	1.785464	-0.000211
1156	1.1492e+02	-3.0087	-3.328618	0.000831	8.310105	1.407770	-0.000166
1157	1.1502e+02	-3.0267	-3.534512	0.001034	10.336959	1.751128	-0.000207
1158	1.1512e+02	-3.0471	-3.716183	0.000912	9.120846	1.545113	-0.000183
1159	1.1522e+02	-3.0676	-3.901892	0.000932	9.323532	1.579449	-0.000187
1160	1.1532e+02	-3.0862	-4.156231	0.001277	12.769185	2.163159	-0.000256
1161	1.1542e+02	-3.1069	-4.281382	0.000628	6.283250	1.064411	-0.000126
1162	1.1552e+02	-3.1268	-4.511499	0.001155	11.553072	1.957143	-0.000231
1163	1.1562e+02	-3.1470	-4.689133	0.000892	8.918161	1.510777	-0.000179
1164	1.1572e+02	-3.1672	-4.834470	0.000730	7.296677	1.236091	-0.000146
1165	1.1582e+02	-3.1860	-5.052475	0.001095	10.945016	1.854136	-0.000219
1166	1.1592e+02	-3.2065	-5.246258	0.000973	9.728903	1.648121	-0.000195
1167	1.1602e+02	-3.2260	-5.444078	0.000993	9.931588	1.682457	-0.000199
1168	1.1612e+02	-3.2470	-5.641897	0.000993	9.931588	1.682457	-0.000199
1169	1.1622e+02	-3.2661	-5.823568	0.000912	9.120846	1.545113	-0.000183
1170	1.1632e+02	-3.2864	-6.009277	0.000932	9.323532	1.579449	-0.000187
1171	1.1642e+02	-3.3069	-6.219208	0.001054	10.539645	1.785464	-0.000211
1172	1.1651e+02	-3.3263	-6.360507	0.000709	7.093992	1.201755	-0.000142
1173	1.1661e+02	-3.3462	-6.598698	0.001196	11.958443	2.025815	-0.000239
1174	1.1671e+02	-3.3656	-6.812667	0.001074	10.742330	1.819800	-0.000215
1175	1.1681e+02	-3.3865	-6.962041	0.000750	7.499363	1.270426	-0.000150
1176	1.1691e+02	-3.4062	-7.180046	0.001095	10.945016	1.854136	-0.000219
1177	1.1701e+02	-3.4262	-7.377866	0.000993	9.931588	1.682457	-0.000199
1178	1.1711e+02	-3.4467	-7.551462	0.000872	8.715475	1.476442	-0.000174
1179	1.1721e+02	-3.4656	-7.745245	0.000973	9.728903	1.648121	-0.000195
1180	1.1731e+02	-3.4853	-7.930953	0.000932	9.323532	1.579449	-0.000187
1181	1.1741e+02	-3.5037	-8.116661	0.000932	9.323532	1.579449	-0.000187
1182	1.1751e+02	-3.5258	-8.318518	0.001013	10.134274	1.716792	-0.000203
1183	1.1761e+02	-3.5452	-8.500189	0.000912	9.120846	1.545113	-0.000183
1184	1.1771e+02	-3.5654	-8.689935	0.000953	9.526217	1.613785	-0.000191
1185	1.1781e+02	-3.5844	-8.903903	0.001074	10.742330	1.819800	-0.000215
1186	1.1791e+02	-3.6060	-9.045203	0.000709	7.093992	1.201755	-0.000142
1187	1.1801e+02	-3.6252	-9.259171	0.001074	10.742330	1.819800	-0.000215
1188	1.1811e+02	-3.6451	-9.424693	0.000831	8.310105	1.407770	-0.000166
1189	1.1821e+02	-3.6655	-9.626550	0.001013	10.134274	1.716792	-0.000203
1190	1.1831e+02	-3.6852	-9.844555	0.001095	10.945016	1.854136	-0.000219
1191	1.1841e+02	-3.7056	-10.014115	0.000851	8.512790	1.442106	-0.000170
1192	1.1850e+02	-3.7241	-10.215972	0.001013	10.134274	1.716792	-0.000203
1193	1.1860e+02	-3.7447	-10.413792	0.000993	9.931588	1.682457	-0.000199
1194	1.1870e+02	-3.7643	-10.599500	0.000932	9.323532	1.579449	-0.000187
1195	1.1880e+02	-3.7842	-10.777134	0.000892	8.918161	1.510777	-0.000179
1196	1.1890e+02	-3.8039	-10.991102	0.001074	10.742330	1.819800	-0.000215
1197	1.1900e+02	-3.8238	-11.160662	0.000851	8.512790	1.442106	-0.000170
1198	1.1910e+02	-3.8445	-11.370593	0.001054	10.539645	1.785464	-0.000211
1199	1.1920e+02	-3.8642	-11.515930	0.000730	7.296677	1.236091	-0.000146
1200	1.1930e+02	-3.8840	-11.774306	0.001297	12.971871	2.197494	-0.000260
1201	1.1940e+02	-3.9047	-11.947903	0.000872	8.715475	1.476442	-0.000174
1202	1.1950e+02	-3.9243	-12.125537	0.000892	8.918161	1.510777	-0.000179
1203	1.1960e+02	-3.9435	-12.351617	0.001135	11.350387	1.922808	-0.000227
1204	1.1970e+02	-3.9640	-12.533288	0.000912	9.120846	1.545113	-0.000183
1205	1.1980e+02	-3.9842	-12.755330	0.001115	11.147701	1.888472	-0.000223
1206	1.1990e+02	-4.0038	-12.904704	0.000750	7.499363	1.270426	-0.000150
1207	1.2000e+02	-4.0240	-13.074264	0.000851	8.512790	1.442106	-0.000170
1208	1.2010e+02	-4.0426	-13.272084	0.000993	9.931588	1.682457	-0.000199
1209	1.2020e+02	-4.0640	-13.502200	0.001155	11.553072	1.957143	-0.000231
1210	1.2030e+02	-4.0822	-13.683872	0.000912	9.120846	1.545113	-0.000183
1211	1.2039e+02	-4.1031	-13.877654	0.000973	9.728903	1.648121	-0.000195
1212	1.2049e+02	-4.1234	-14.075474	0.000993	9.931588	1.682457	-0.000199
1213	1.2059e+02	-4.1433	-14.249071	0.000872	8.715475	1.476442	-0.000174
1214	1.2069e+02	-4.1628	-14.426705	0.000892	8.918161	1.510777	-0.000179
1215	1.2079e+02	-4.1824	-14.632598	0.001034	10.336959	1.751128	-0.000207
1216	1.2089e+02	-4.2029	-14.874827	0.001216	12.161129	2.060151	-0.000243
1217	1.2099e+02	-4.2228	-15.024201	0.000750	7.499363	1.270426	-0.000150
1218	1.2109e+02	-4.2422	-15.205872	0.000912	9.120846	1.545113	-0.000183
1219	1.2119e+02	-4.2627	-15.403691	0.000993	9.931588	1.682457	-0.000199
1220	1.2129e+02	-4.2828	-15.585363	0.000912	9.120846	1.545113	-0.000183
1221	1.2139e+02	-4.3020	-15.771071	0.000932	9.323532	1.579449	-0.000187
1222	1.2149e+02	-4.3221	-15.976965	0.001034	10.336959	1.751128	-0.000207
1223	1.2159e+02	-4.3423	-16.194970	0.001095	10.945016	1.854136	-0.000219
1224	1.2169e+02	-4.3617	-16.364530	0.000851	8.512790	1.442106	-0.000170
1225	1.2179e+02	-4.3823	-16.542164	0.000892	8.918161	1.510777	-0.000179
1226	1.2189e+02	-4.4019	-16.752095	0.001054	10.539645	1.785464	-0.000211
1227	1.2199e+02	-4.4211	-16.978174	0.001135	11.350387	1.922808	-0.000227
1228	1.2209e+02	-4.4414	-17.155808	0.000892	8.918161	1.510777	-0.000179
1229	1.2219e+02	-4.4614	-17.361702	0.001034	10.336959	1.751128	-0.000207
1230	1.2229e+02	-4.4814	-17.523188	0.000811	8.107419	1.373434	-0.000162
1231	1.2239e+02	-4.5016	-17.733119	0.001054	10.539645	1.785464	-0.000211
1232	1.2248e+02	-4.5218	-17.922864	0.000953	9.526217	1.613785	-0.000191
1233	1.2258e+02	-4.5406	-18.104535	0.000912	9.120846	1.545113	-0.000183
1234	1.2268e+02	-4.5615	-18.274095	0.000851	8.512790	1.442106	-0.000170
1235	1.2278e+02	-4.5818	-18.492100	0.001095	10.945016	1.854136	-0.000219
1236	1.2288e+02	-4.6010	-18.706068	0.001074	10.742330	1.819800	-0.000215
1237	1.2298e+02	-4.6217	-18.891777	0.000932	9.323532	1.579449	-0.000187
1238	1.2308e+02	-4.6414	-19.081522	0.000953	9.526217	1.613785	-0.000191
1239	1.2318e+02	-4.6606	-19.243007	0.000811	8.107419	1.373434	-0.000162
1240	1.2328e+02	-4.6808	-19.465050	0.001115	11.147701	1.888472	-0.000223
1241	1.2338e+02	-4.7000	-19.654795	0.000953	9.526217	1.613785	-0.000191
1242	1.2348e+02	-4.7209	-19.832429	0.000892	8.918161	1.510777	-0.000179
1243	1.2358e+02	-4.7401	-20.066583	0.001176	11.755758	1.991479	-0.000235
1244	1.2368e+02	-4.7617	-20.236143	0.000851	8.512790	1.442106	-0.000170
1245	1.2378e+02	-4.7800	-20.450111	0.001074	10.742330	1.819800	-0.000215
1246	1.2388e+02	-4.7998	-20.639856	0.000953	9.526217	1.613785	-0.000191
1247	1.2398e+02	-4.8202	-20.821528	0.000912	9.120846	1.545113	-0.000183
1248	1.2408e+02	-4.8400	-21.027421	0.001034	10.336959	1.751128	-0.000207
1249	1.2418e+02	-4.8604	-21.188907	0.000811	8.107419	1.373434	-0.000162
1250	1.2428e+02	-4.8796	-21.435172	0.001236	12.363814	2.094487	-0.000248
1251	1.2438e+02	-4.8994	-21.596658	0.000811	8.107419	1.373434	-0.000162
1252	1.2447e+02	-4.9196	-21.798514	0.001013	10.134274	1.716792	-0.000203
1253	1.2457e+02	-4.9394	-22.024594	0.001135	11.350387	1.922808	-0.000227
1254	1.2467e+02	-4.9594	-22.194154	0.000851	8.512790	1.442106	-0.000170
1255	1.2477e+02	-4.9799	-22.387936	0.000973	9.728903	1.648121	-0.000195
1256	1.2487e+02	-5.0000	-22.561533	0.000872	8.715475	1.476442	-0.000174
1257	1.2497e+02	-5.0190	-22.791650	0.001155	11.553072	1.957143	-0.000231
1258	1.2507e+02	-5.0397	-22.997544	0.001034	10.336959	1.751128	-0.000207
1259	1.2517e+02	-5.0598	-23.199401	0.001013	10.134274	1.716792	-0.000203
1260	1.2527e+02	-5.0790	-23.372997	0.000872	8.715475	1.476442	-0.000174
1261	1.2537e+02	-5.0995	-23.566780	0.000973	9.728903	1.648121	-0.000195
1262	1.2547e+02	-5.1181	-23.780748	0.001074	10.742330	1.819800	-0.000215
1263	1.2557e+02	-5.1389	-23.946271	0.000831	8.310105	1.407770	-0.000166
1264	1.2567e+02	-5.1588	-24.152165	0.001034	10.336959	1.751128	-0.000207
1265	1.2577e+02	-5.1781	-24.358058	0.001034	10.336959	1.751128	-0.000207
1266	1.2587e+02	-5.1982	-24.543767	0.000932	9.323532	1.579449	-0.000187
1267	1.2597e+02	-5.2188	-24.717364	0.000872	8.715475	1.476442	-0.000174
1268	1.2607e+02	-5.2390	-24.935369	0.001095	10.945016	1.854136	-0.000219
1269	1.2617e+02	-5.2591	-25.108966	0.000872	8.715475	1.476442	-0.000174
1270	1.2627e+02	-5.2786	-25.343120	0.001176	11.755758	1.991479	-0.000235
1271	1.2636e+02	-5.2966	-25.496531	0.000770	7.702048	1.304762	-0.000154
1272	1.2646e+02	-5.3179	-25.722610	0.001135	11.350387	1.922808	-0.000227
1273	1.2656e+02	-5.3388	-25.916393	0.000973	9.728903	1.648121	-0.000195
1274	1.2666e+02	-5.3584	-26.110175	0.000973	9.728903	1.648121	-0.000195
1275	1.2676e+02	-5.3783	-26.287809	0.000892	8.918161	1.510777	-0.000179
1276	1.2686e+02	-5.3979	-26.497740	0.001054	10.539645	1.785464	-0.000211
1277	1.2696e+02	-5.4181	-26.679412	0.000912	9.120846	1.545113	-0.000183
1278	1.2706e+02	-5.4382	-26.865120	0.000932	9.323532	1.579449	-0.000187
1279	1.2716e+02	-5.4578	-27.095237	0.001155	11.553072	1.957143	-0.000231
1280	1.2726e+02	-5.4784	-27.289019	0.000973	9.728903	1.648121	-0.000195
1281	1.2736e+02	-5.4984	-27.502987	0.001074	10.742330	1.819800	-0.000215
1282	1.2746e+02	-5.5176	-27.644287	0.000709	7.093992	1.201755	-0.000142
1283	1.2756e+02	-5.5377	-27.866329	0.001115	11.147701	1.888472	-0.000223
1284	1.2766e+02	-5.5582	-28.088372	0.001115	11.147701	1.888472	-0.000223
1285	1.2776e+02	-5.5769	-28.266006	0.000892	8.918161	1.510777	-0.000179
1286	1.2786e+02	-5.5965	-28.431528	0.000831	8.310105	1.407770	-0.000166
1287	1.2796e+02	-5.6175	-28.669719	0.001196	11.958443	2.025815	-0.000239
1288	1.2806e+02	-5.6372	-28.855428	0.000932	9.323532	1.579449	-0.000187
1289	1.2816e+02	-5.6573	-29.037099	0.000912	9.120846	1.545113	-0.000183
1290	1.2826e+02	-5.6773	-29.238956	0.001013	10.134274	1.716792	-0.000203
1291	1.2835e+02	-5.6966	-29.420627	0.000912	9.120846	1.545113	-0.000183
1292	1.2845e+02	-5.7166	-29.638632	0.001095	10.945016	1.854136	-0.000219
1293	1.2855e+02	-5.7364	-29.852600	0.001074	10.742330	1.819800	-0.000215
1294	1.2865e+02	-5.7571	-29.997937	0.000730	7.296677	1.236091	-0.000146
1295	1.2875e+02	-5.7758	-30.219980	0.001115	11.147701	1.888472	-0.000223
1296	1.2885e+02	-5.7967	-30.450096	0.001155	11.553072	1.957143	-0.000231
1297	1.2895e+02	-5.8163	-30.660027	0.001054	10.539645	1.785464	-0.000211
1298	1.2905e+02	-5.8367	-30.817476	0.000790	7.904734	1.339098	-0.000158
1299	1.2915e+02	-5.8560	-31.043555	0.001135	11.350387	1.922808	-0.000227
1300	1.2925e+02	-5.8763	-31.229264	0.000932	9.323532	1.579449	-0.000187
1301	1.2935e+02	-5.8958	-31.439195	0.001054	10.539645	1.785464	-0.000211
1302	1.2945e+02	-5.9164	-31.649126	0.001054	10.539645	1.785464	-0.000211
1303	1.2955e+02	-5.9368	-31.818685	0.000851	8.512790	1.442106	-0.000170
1304	1.2965e+02	-5.9563	-32.008431	0.000953	9.526217	1.613785	-0.000191
1305	1.2975e+02	-5.9758	-32.250659	0.001216	12.161129	2.060151	-0.000243
1306	1.2985e+02	-5.9964	-32.420219	0.000851	8.512790	1.442106	-0.000170
1307	1.2995e+02	-6.0162	-32.622075	0.001013	10.134274	1.716792	-0.000203
1308	1.3005e+02	-6.0359	-32.844118	0.001115	11.147701	1.888472	-0.000223
1309	1.3015e+02	-6.0546	-33.074235	0.001155	11.553072	1.957143	-0.000231
1310	1.3025e+02	-6.0748	-33.235720	0.000811	8.107419	1.373434	-0.000162
1311	1.3034e+02	-6.0962	-33.473911	0.001196	11.958443	2.025815	-0.000239
1312	1.3044e+02	-6.1153	-33.683842	0.001054	10.539645	1.785464	-0.000211
1313	1.3054e+02	-6.1340	-33.853402	0.000851	8.512790	1.442106	-0.000170
1314	1.3064e+02	-6.1557	-34.051221	0.000993	9.931588	1.682457	-0.000199
1315	1.3074e+02	-6.1754	-34.249041	0.000993	9.931588	1.682457	-0.000199
1316	1.3084e+02	-6.1955	-34.446861	0.000993	9.931588	1.682457	-0.000199
1317	1.3094e+02	-6.2158	-34.660829	0.001074	10.742330	1.819800	-0.000215
1318	1.3104e+02	-6.2344	-34.903057	0.001216	12.161129	2.060151	-0.000243
1319	1.3114e+02	-6.2547	-35.117025	0.001074	10.742330	1.819800	-0.000215
1320	1.3124e+02	-6.2746	-35.322919	0.001034	10.336959	1.751128	-0.000207
1321	1.3134e+02	-6.2955	-35.512665	0.000953	9.526217	1.613785	-0.000191
1322	1.3144e+02	-6.3145	-35.670113	0.000790	7.904734	1.339098	-0.000158
1323	1.3154e+02	-6.3341	-35.916378	0.001236	12.363814	2.094487	-0.000248
1324	1.3164e+02	-6.3542	-36.118235	0.001013	10.134274	1.716792	-0.000203
1325	1.3174e+02	-6.3739	-36.316055	0.000993	9.931588	1.682457	-0.000199
1326	1.3184e+02	-6.3942	-36.546171	0.001155	11.553072	1.957143	-0.000231
1327	1.3194e+02	-6.4141	-36.715731	0.000851	8.512790	1.442106	-0.000170
1328	1.3204e+02	-6.4344	-36.925662	0.001054	10.539645	1.785464	-0.000211
1329	1.3214e+02	-6.4536	-37.184039	0.001297	12.971871	2.197494	-0.000260
1330	1.3224e+02	-6.4742	-37.353598	0.000851	8.512790	1.442106	-0.000170
1331	1.3234e+02	-6.4936	-37.551418	0.000993	9.931588	1.682457	-0.000199
1332	1.3243e+02	-6.5144	-37.761349	0.001054	10.539645	1.785464	-0.000211
1333	1.3253e+02	-6.5341	-37.983392	0.001115	11.147701	1.888472	-0.000223
1334	1.3263e+02	-6.5543	-38.213508	0.001155	11.553072	1.957143	-0.000231
1335	1.3273e+02	-6.5732	-38.439588	0.001135	11.350387	1.922808	-0.000227
1336	1.3283e+02	-6.5939	-38.637408	0.000993	9.931588	1.682457	-0.000199
1337	1.3293e+02	-6.6132	-38.835227	0.000993	9.931588	1.682457	-0.000199
1338	1.3303e+02	-6.6335	-39.024973	0.000953	9.526217	1.613785	-0.000191
1339	1.3313e+02	-6.6523	-39.267201	0.001216	12.161129	2.060151	-0.000243
1340	1.3323e+02	-6.6730	-39.493280	0.001135	11.350387	1.922808	-0.000227
1341	1.3333e+02	-6.6928	-39.715323	0.001115	11.147701	1.888472	-0.000223
1342	1.3343e+02	-6.7134	-39.941402	0.001135	11.350387	1.922808	-0.000227
1343	1.3353e+02	-6.7330	-40.135185	0.000973	9.728903	1.648121	-0.000195
1344	1.3363e+02	-6.7535	-40.341079	0.001034	10.336959	1.751128	-0.000207
1345	1.3373e+02	-6.7723	-40.603493	0.001317	13.174556	2.231830	-0.000264
1346	1.3383e+02	-6.7922	-40.797275	0.000973	9.728903	1.648121	-0.000195
1347	1.3393e+02	-6.8124	-41.031429	0.001176	11.755758	1.991479	-0.000235
1348	1.3403e+02	-6.8328	-41.261546	0.001155	11.553072	1.957143	-0.000231
1349	1.3413e+02	-6.8532	-41.479551	0.001095	10.945016	1.854136	-0.000219
1350	1.3423e+02	-6.8729	-41.689482	0.001054	10.539645	1.785464	-0.000211
1351	1.3432e+02	-6.8925	-41.891339	0.001013	10.134274	1.716792	-0.000203
1352	1.3442e+02	-6.9121	-42.109344	0.001095	10.945016	1.854136	-0.000219
1353	1.3452e+02	-6.9310	-42.323313	0.001074	10.742330	1.819800	-0.000215
1354	1.3462e+02	-6.9515	-42.593801	0.001358	13.579927	2.300502	-0.000272
1355	1.3472e+02	-6.9711	-42.767397	0.000872	8.715475	1.476442	-0.000174
1356	1.3482e+02	-6.9917	-43.017700	0.001257	12.566500	2.128823	-0.000252
1357	1.3492e+02	-7.0125	-43.263965	0.001236	12.363814	2.094487	-0.000248
1358	1.3502e+02	-7.0306	-43.445636	0.000912	9.120846	1.545113	-0.000183
1359	1.3512e+02	-7.0523	-43.716124	0.001358	13.579927	2.300502	-0.000272
1360	1.3522e+02	-7.0715	-43.901833	0.000932	9.323532	1.579449	-0.000187
1361	1.3532e+02	-7.0937	-44.168284	0.001338	13.377241	2.266166	-0.000268
1362	1.3542e+02	-7.1114	-44.386289	0.001095	10.945016	1.854136	-0.000219
1363	1.3552e+02	-7.1307	-44.656777	0.001358	13.579927	2.300502	-0.000272
1364	1.3562e+02	-7.1517	-44.886894	0.001155	11.553072	1.957143	-0.000231
1365	1.3572e+02	-7.1703	-45.125085	0.001196	11.958443	2.025815	-0.000239
1366	1.3582e+02	-7.1915	-45.339053	0.001074	10.742330	1.819800	-0.000215
1367	1.3592e+02	-7.2107	-45.581281	0.001216	12.161129	2.060151	-0.000243
1368	1.3602e+02	-7.2311	-45.819472	0.001196	11.958443	2.025815	-0.000239
1369	1.3612e+02	-7.2508	-46.053626	0.001176	11.755758	1.991479	-0.000235
1370	1.3622e+02	-7.2702	-46.307965	0.001277	12.769185	2.163159	-0.000256
1371	1.3631e+02	-7.2903	-46.574416	0.001338	13.377241	2.266166	-0.000268
1372	1.3641e+02	-7.3105	-46.824719	0.001257	12.566500	2.128823	-0.000252
1373	1.3651e+02	-7.3318	-47.022539	0.000993	9.931588	1.682457	-0.000199
1374	1.3661e+02	-7.3511	-47.256692	0.001176	11.755758	1.991479	-0.000235
1375	1.3671e+02	-7.3708	-47.515069	0.001297	12.971871	2.197494	-0.000260
1376	1.3681e+02	-7.3903	-47.745186	0.001155	11.553072	1.957143	-0.000231
1377	1.3691e+02	-7.4101	-48.031822	0.001439	14.390669	2.437845	-0.000288
1378	1.3701e+02	-7.4297	-48.213494	0.000912	9.120846	1.545113	-0.000183
1379	1.3711e+02	-7.4498	-48.492056	0.001399	13.985298	2.369174	-0.000280
1380	1.3721e+02	-7.4689	-48.742358	0.001257	12.566500	2.128823	-0.000252
1381	1.3731e+02	-7.4907	-48.948252	0.001034	10.336959	1.751128	-0.000207
1382	1.3741e+02	-7.5099	-49.275260	0.001642	16.417524	2.781204	-0.000329
1383	1.3751e+02	-7.5291	-49.497303	0.001115	11.147701	1.888472	-0.000223
1384	1.3761e+02	-7.5493	-49.775865	0.001399	13.985298	2.369174	-0.000280
1385	1.3771e+02	-7.5694	-50.038279	0.001317	13.174556	2.231830	-0.000264
1386	1.3781e+02	-7.5891	-50.256284	0.001095	10.945016	1.854136	-0.000219
1387	1.3791e+02	-7.6080	-50.494475	0.001196	11.958443	2.025815	-0.000239
1388	1.3801e+02	-7.6282	-50.789186	0.001480	14.796040	2.506517	-0.000296
1389	1.3811e+02	-7.6483	-51.039489	0.001257	12.566500	2.128823	-0.000252
1390	1.3821e+02	-7.6685	-51.309977	0.001358	13.579927	2.300502	-0.000272
1391	1.3831e+02	-7.6889	-51.544131	0.001176	11.755758	1.991479	-0.000235
1392	1.3840e+02	-7.7098	-51.778284	0.001176	11.755758	1.991479	-0.000235
1393	1.3850e+02	-7.7290	-52.081070	0.001520	15.201411	2.575189	-0.000304
1394	1.3860e+02	-7.7486	-52.355595	0.001378	13.782612	2.334838	-0.000276
1395	1.3870e+02	-7.7692	-52.613972	0.001297	12.971871	2.197494	-0.000260
1396	1.3880e+02	-7.7879	-52.908682	0.001480	14.796040	2.506517	-0.000296
1397	1.3890e+02	-7.8079	-53.142836	0.001176	11.755758	1.991479	-0.000235
1398	1.3900e+02	-7.8278	-53.409287	0.001338	13.377241	2.266166	-0.000268
1399	1.3910e+02	-7.8481	-53.631330	0.001115	11.147701	1.888472	-0.000223
1400	1.3920e+02	-7.8673	-53.958338	0.001642	16.417524	2.781204	-0.000329
1401	1.3930e+02	-7.8879	-54.188454	0.001155	11.553072	1.957143	-0.000231
1402	1.3940e+02	-7.9082	-54.499314	0.001561	15.606782	2.643860	-0.000312
1403	1.3950e+02	-7.9281	-54.765765	0.001338	13.377241	2.266166	-0.000268
1404	1.3960e+02	-7.9487	-55.048364	0.001419	14.187983	2.403509	-0.000284
1405	1.3970e+02	-7.9675	-55.302704	0.001277	12.769185	2.163159	-0.000256
1406	1.3980e+02	-7.9869	-55.597415	0.001480	14.796040	2.506517	-0.000296
1407	1.3990e+02	-8.0066	-55.884051	0.001439	14.390669	2.437845	-0.000288
1408	1.4000e+02	-8.0272	-56.170688	0.001439	14.390669	2.437845	-0.000288
1409	1.4010e+02	-8.0469	-56.457325	0.001439	14.390669	2.437845	-0.000288
1410	1.4020e+02	-8.0676	-56.735887	0.001399	13.985298	2.369174	-0.000280
1411	1.4029e+02	-8.0872	-57.018487	0.001419	14.187983	2.403509	-0.000284
1412	1.4039e+02	-8.1071	-57.301086	0.001419	14.187983	2.403509	-0.000284
1413	1.4049e+02	-8.1267	-57.615983	0.001581	15.809467	2.678196	-0.000316
1414	1.4059e+02	-8.1470	-57.862248	0.001236	12.363814	2.094487	-0.000248
1415	1.4069e+02	-8.1662	-58.173107	0.001561	15.606782	2.643860	-0.000312
1416	1.4079e+02	-8.1870	-58.463781	0.001459	14.593354	2.472181	-0.000292
1417	1.4089e+02	-8.2065	-58.746381	0.001419	14.187983	2.403509	-0.000284
1418	1.4099e+02	-8.2272	-59.041092	0.001480	14.796040	2.506517	-0.000296
1419	1.4109e+02	-8.2468	-59.372137	0.001662	16.620209	2.815540	-0.000333
1420	1.4119e+02	-8.2675	-59.687033	0.001581	15.809467	2.678196	-0.000316
1421	1.4129e+02	-8.2867	-59.945410	0.001297	12.971871	2.197494	-0.000260
1422	1.4139e+02	-8.3072	-60.280492	0.001682	16.822895	2.849875	-0.000337
1423	1.4149e+02	-8.3255	-60.575203	0.001480	14.796040	2.506517	-0.000296
1424	1.4159e+02	-8.3461	-60.837617	0.001317	13.174556	2.231830	-0.000264
1425	1.4169e+02	-8.3659	-61.184811	0.001743	17.430951	2.952883	-0.000349
1426	1.4179e+02	-8.3859	-61.507782	0.001621	16.214838	2.746868	-0.000325
1427	1.4189e+02	-8.4069	-61.790381	0.001419	14.187983	2.403509	-0.000284
1428	1.4199e+02	-8.4259	-62.089129	0.001500	14.998725	2.540853	-0.000300
1429	1.4209e+02	-8.4451	-62.408063	0.001601	16.012153	2.712532	-0.000321
1430	1.4219e+02	-8.4649	-62.747182	0.001703	17.025580	2.884211	-0.000341
1431	1.4228e+02	-8.4860	-63.029782	0.001419	14.187983	2.403509	-0.000284
1432	1.4238e+02	-8.5053	-63.372938	0.001723	17.228266	2.918547	-0.000345
1433	1.4248e+02	-8.5254	-63.695909	0.001621	16.214838	2.746868	-0.000325
1434	1.4258e+02	-8.5452	-64.014843	0.001601	16.012153	2.712532	-0.000321
1435	1.4268e+02	-8.5649	-64.325702	0.001561	15.606782	2.643860	-0.000312
1436	1.4278e+02	-8.5861	-64.668859	0.001723	17.228266	2.918547	-0.000345
1437	1.4288e+02	-8.6057	-64.955495	0.001439	14.390669	2.437845	-0.000288
1438	1.4298e+02	-8.6256	-65.286541	0.001662	16.620209	2.815540	-0.000333
1439	1.4308e+02	-8.6458	-65.605474	0.001601	16.012153	2.712532	-0.000321
1440	1.4318e+02	-8.6646	-65.984965	0.001905	19.052435	3.227570	-0.000381
1441	1.4328e+02	-8.6845	-66.271602	0.001439	14.390669	2.437845	-0.000288
1442	1.4338e+02	-8.7045	-66.634944	0.001824	18.241693	3.090226	-0.000365
1443	1.4348e+02	-8.7244	-66.945803	0.001561	15.606782	2.643860	-0.000312
1444	1.4358e+02	-8.7446	-67.280886	0.001682	16.822895	2.849875	-0.000337
1445	1.4368e+02	-8.7642	-67.660376	0.001905	19.052435	3.227570	-0.000381
1446	1.4378e+02	-8.7840	-68.015644	0.001784	17.836322	3.021555	-0.000357
1447	1.4388e+02	-8.8042	-68.326504	0.001561	15.606782	2.643860	-0.000312
1448	1.4398e+02	-8.8239	-68.681772	0.001784	17.836322	3.021555	-0.000357
1449	1.4408e+02	-8.8443	-69.028965	0.001743	17.430951	2.952883	-0.000349
1450	1.4418e+02	-8.8643	-69.392308	0.001824	18.241693	3.090226	-0.000365
1451	1.4428e+02	-8.8824	-69.747576	0.001784	17.836322	3.021555	-0.000357
1452	1.4437e+02	-8.9035	-70.106881	0.001804	18.039007	3.055891	-0.000361
1453	1.4447e+02	-8.9229	-70.385443	0.001399	13.985298	2.369174	-0.000280
1454	1.4457e+02	-8.9426	-70.801268	0.002088	20.876604	3.536592	-0.000418
1455	1.4467e+02	-8.9629	-71.168647	0.001844	18.444378	3.124562	-0.000369
1456	1.4477e+02	-8.9838	-71.507767	0.001703	17.025580	2.884211	-0.000341
1457	1.4487e+02	-9.0042	-71.907443	0.002007	20.065862	3.399249	-0.000402
1458	1.4497e+02	-9.0231	-72.274823	0.001844	18.444378	3.124562	-0.000369
1459	1.4507e+02	-9.0425	-72.650276	0.001885	18.849749	3.193234	-0.000377
1460	1.4517e+02	-9.0629	-73.025730	0.001885	18.849749	3.193234	-0.000377
1461	1.4527e+02	-9.0819	-73.413295	0.001946	19.457806	3.296242	-0.000390
1462	1.4537e+02	-9.1021	-73.788748	0.001885	18.849749	3.193234	-0.000377
1463	1.4547e+02	-9.1237	-74.168239	0.001905	19.052435	3.227570	-0.000381
1464	1.4557e+02	-9.1432	-74.539656	0.001865	18.647064	3.158898	-0.000373
1465	1.4567e+02	-9.1621	-74.907035	0.001844	18.444378	3.124562	-0.000369
1466	1.4577e+02	-9.1821	-75.294600	0.001946	19.457806	3.296242	-0.000390
1467	1.4587e+02	-9.2028	-75.718499	0.002128	21.281975	3.605264	-0.000426
1468	1.4597e+02	-9.2213	-76.077804	0.001804	18.039007	3.055891	-0.000361
1469	1.4607e+02	-9.2430	-76.477481	0.002007	20.065862	3.399249	-0.000402
1470	1.4617e+02	-9.2622	-76.893306	0.002088	20.876604	3.536592	-0.000418
1471	1.4626e+02	-9.2821	-77.264722	0.001865	18.647064	3.158898	-0.000373
1472	1.4636e+02	-9.3028	-77.720919	0.002290	22.903459	3.879951	-0.000458
1473	1.4646e+02	-9.3218	-78.088298	0.001844	18.444378	3.124562	-0.000369
1474	1.4656e+02	-9.3408	-78.528346	0.002209	22.092717	3.742608	-0.000442
1475	1.4666e+02	-9.3623	-78.936097	0.002047	20.471233	3.467921	-0.000410
1476	1.4676e+02	-9.3823	-79.351921	0.002088	20.876604	3.536592	-0.000418
1477	1.4686e+02	-9.4012	-79.796006	0.002230	22.295402	3.776943	-0.000446
1478	1.4696e+02	-9.4226	-80.195683	0.002007	20.065862	3.399249	-0.000402
1479	1.4706e+02	-9.4428	-80.647842	0.002270	22.700773	3.845615	-0.000454
1480	1.4716e+02	-9.4614	-81.087890	0.002209	22.092717	3.742608	-0.000442
1481	1.4726e+02	-9.4812	-81.471418	0.001926	19.255120	3.261906	-0.000385
1482	1.4736e+02	-9.5001	-81.935688	0.002331	23.308830	3.948623	-0.000467
1483	1.4746e+02	-9.5215	-82.339402	0.002027	20.268548	3.433585	-0.000406
1484	1.4756e+02	-9.5418	-82.840007	0.002513	25.132999	4.257645	-0.000503
1485	1.4766e+02	-9.5605	-83.247757	0.002047	20.471233	3.467921	-0.000410
1486	1.4776e+02	-9.5821	-83.712028	0.002331	23.308830	3.948623	-0.000467
1487	1.4786e+02	-9.6008	-84.139964	0.002148	21.484661	3.639600	-0.000430
1488	1.4796e+02	-9.6205	-84.616347	0.002392	23.916886	4.051630	-0.000479
1489	1.4806e+02	-9.6400	-85.108877	0.002473	24.727628	4.188974	-0.000495
1490	1.4816e+02	-9.6605	-85.540851	0.002169	21.687346	3.673936	-0.000434
1491	1.4825e+02	-9.6799	-86.021270	0.002412	24.119572	4.085966	-0.000483
1492	1.4835e+02	-9.7003	-86.505726	0.002432	24.322257	4.120302	-0.000487
1493	1.4845e+02	-9.7200	-86.990182	0.002432	24.322257	4.120302	-0.000487
1494	1.4855e+02	-9.7407	-87.426193	0.002189	21.890031	3.708272	-0.000438
1495	1.4865e+02	-9.7606	-87.959095	0.002675	26.754483	4.532332	-0.000536
1496	1.4875e+02	-9.7800	-88.415291	0.002290	22.903459	3.879951	-0.000458
1497	1.4885e+02	-9.7998	-88.936082	0.002615	26.146426	4.429325	-0.000523
1498	1.4895e+02	-9.8219	-89.400352	0.002331	23.308830	3.948623	-0.000467
1499	1.4905e+02	-9.8393	-89.917106	0.002594	25.943741	4.394989	-0.000519
1500	1.4915e+02	-9.8604	-90.445971	0.002655	26.551797	4.497996	-0.000532
1501	1.4925e+02	-9.8799	-90.914278	0.002351	23.511515	3.982959	-0.000471
1502	1.4935e+02	-9.8997	-91.475440	0.002817	28.173281	4.772683	-0.000564
1503	1.4945e+02	-9.9195	-91.959896	0.002432	24.322257	4.120302	-0.000487
1504	1.4955e+02	-9.9402	-92.480687	0.002615	26.146426	4.429325	-0.000523
1505	1.4965e+02	-9.9606	-93.049923	0.002858	28.578652	4.841355	-0.000572
1506	1.4975e+02	-9.9799	-93.526305	0.002392	23.916886	4.051630	-0.000479
1507	1.4985e+02	-9.9997	-94.091504	0.002838	28.375967	4.807019	-0.000568
1508	1.4995e+02	-9.9799	-94.390252	-0.001500	-14.998725	-2.540853	-0.000300
1509	1.5005e+02	-9.9600	-94.733409	-0.001723	-17.228266	-2.918547	-0.000345
1510	1.5015e+02	-9.9395	-95.028120	-0.001480	-14.796040	-2.506517	-0.000296
1511	1.5025e+02	-9.9191	-95.282459	-0.001277	-12.769185	-2.163159	-0.000256
1512	1.5034e+02	-9.9002	-95.569096	-0.001439	-14.390669	-2.437845	-0.000288
1513	1.5044e+02	-9.8799	-95.791138	-0.001115	-11.147701	-1.888472	-0.000223
1514	1.5054e+02	-9.8596	-96.045478	-0.001277	-12.769185	-2.163159	-0.000256
1515	1.5064e+02	-9.8395	-96.267520	-0.001115	-11.147701	-1.888472	-0.000223
1516	1.5074e+02	-9.8206	-96.501674	-0.001176	-11.755758	-1.991479	-0.000235
1517	1.5084e+02	-9.8001	-96.731791	-0.001155	-11.553072	-1.957143	-0.000231
1518	1.5094e+02	-9.7800	-96.925573	-0.000973	-9.728903	-1.648121	-0.000195
1519	1.5104e+02	-9.7604	-97.091096	-0.000831	-8.310105	-1.407770	-0.000166
1520	1.5114e+02	-9.7398	-97.296990	-0.001034	-10.336959	-1.751128	-0.000207
1521	1.5124e+02	-9.7197	-97.486735	-0.000953	-9.526217	-1.613785	-0.000191
1522	1.5134e+02	-9.6996	-97.700703	-0.001074	-10.742330	-1.819800	-0.000215
1523	1.5144e+02	-9.6806	-97.817780	-0.000588	-5.877879	-0.995740	-0.000118
1524	1.5154e+02	-9.6616	-98.003489	-0.000932	-9.323532	-1.579449	-0.000187
1525	1.5164e+02	-9.6417	-98.177085	-0.000872	-8.715475	-1.476442	-0.000174
1526	1.5174e+02	-9.6210	-98.322422	-0.000730	-7.296677	-1.236091	-0.000146
1527	1.5184e+02	-9.6011	-98.483908	-0.000811	-8.107419	-1.373434	-0.000162
1528	1.5194e+02	-9.5815	-98.633282	-0.000750	-7.499363	-1.270426	-0.000150
1529	1.5204e+02	-9.5608	-98.750359	-0.000588	-5.877879	-0.995740	-0.000118
1530	1.5214e+02	-9.5407	-98.879547	-0.000649	-6.485935	-1.098747	-0.000130
1531	1.5224e+02	-9.5210	-99.036995	-0.000790	-7.904734	-1.339098	-0.000158
1532	1.5233e+02	-9.5014	-99.133887	-0.000486	-4.864451	-0.824060	-0.000097
1533	1.5243e+02	-9.4812	-99.246926	-0.000568	-5.675193	-0.961404	-0.000114
1534	1.5253e+02	-9.4617	-99.420523	-0.000872	-8.715475	-1.476442	-0.000174
1535	1.5263e+02	-9.4408	-99.460895	-0.000203	-2.026855	-0.343358	-0.000041
1536	1.5273e+02	-9.4225	-99.610269	-0.000750	-7.499363	-1.270426	-0.000150
1537	1.5283e+02	-9.4019	-99.715234	-0.000527	-5.269822	-0.892732	-0.000105
1538	1.5293e+02	-9.3826	-99.824237	-0.000547	-5.472508	-0.927068	-0.000110
1539	1.5303e+02	-9.3616	-99.884794	-0.000304	-3.040282	-0.515038	-0.000061
1540	1.5313e+02	-9.3414	-99.965537	-0.000405	-4.053710	-0.686717	-0.000081
1541	1.5323e+02	-9.3218	-100.054354	-0.000446	-4.459080	-0.755389	-0.000089
1542	1.5333e+02	-9.3028	-100.127022	-0.000365	-3.648339	-0.618045	-0.000073
1543	1.5343e+02	-9.2834	-100.231988	-0.000527	-5.269822	-0.892732	-0.000105
1544	1.5353e+02	-9.2614	-100.300619	-0.000345	-3.445653	-0.583709	-0.000069
1545	1.5363e+02	-9.2433	-100.381362	-0.000405	-4.053710	-0.686717	-0.000081
1546	1.5373e+02	-9.2224	-100.377324	0.000020	0.202685	0.034336	0.000004
1547	1.5383e+02	-9.2026	-100.466141	-0.000446	-4.459080	-0.755389	-0.000089
1548	1.5393e+02	-9.1821	-100.546884	-0.000405	-4.053710	-0.686717	-0.000081
1549	1.5403e+02	-9.1620	-100.591293	-0.000223	-2.229540	-0.377694	-0.000045
1550	1.5413e+02	-9.1434	-100.655887	-0.000324	-3.242968	-0.549374	-0.000065
1551	1.5422e+02	-9.1225	-100.756815	-0.000507	-5.067137	-0.858396	-0.000101
1552	1.5432e+02	-9.1028	-100.789112	-0.000162	-1.621484	-0.274687	-0.000032
1553	1.5442e+02	-9.0823	-100.781038	0.000041	0.405371	0.068672	0.000008
1554	1.5452e+02	-9.0636	-100.849669	-0.000345	-3.445653	-0.583709	-0.000069
1555	1.5462e+02	-9.0439	-100.906189	-0.000284	-2.837597	-0.480702	-0.000057
1556	1.5472e+02	-9.0225	-100.914263	-0.000041	-0.405371	-0.068672	-0.000008
1557	1.5482e+02	-9.0034	-100.946561	-0.000162	-1.621484	-0.274687	-0.000032
1558	1.5492e+02	-8.9825	-100.958672	-0.000061	-0.608056	-0.103008	-0.000012
1559	1.5502e+02	-8.9624	-100.982895	-0.000122	-1.216113	-0.206015	-0.000024
1560	1.5512e+02	-8.9435	-101.011155	-0.000142	-1.418798	-0.240351	-0.000028
1561	1.5522e+02	-8.9232	-101.039415	-0.000142	-1.418798	-0.240351	-0.000028
1562	1.5532e+02	-8.9037	-101.051526	-0.000061	-0.608056	-0.103008	-0.000012
1563	1.5542e+02	-8.8837	-101.059600	-0.000041	-0.405371	-0.068672	-0.000008
1564	1.5552e+02	-8.8635	-101.055563	0.000020	0.202685	0.034336	0.000004
1565	1.5562e+02	-8.8435	-101.112083	-0.000284	-2.837597	-0.480702	-0.000057
1566	1.5572e+02	-8.8235	-101.128232	-0.000081	-0.810742	-0.137343	-0.000016
1567	1.5582e+02	-8.8039	-101.095935	0.000162	1.621484	0.274687	0.000032
1568	1.5592e+02	-8.7843	-101.087860	0.000041	0.405371	0.068672	0.000008
1569	1.5602e+02	-8.7650	-101.116120	-0.000142	-1.418798	-0.240351	-0.000028
1570	1.5612e+02	-8.7444	-101.136306	-0.000101	-1.013427	-0.171679	-0.000020
1571	1.5622e+02	-8.7242	-101.104009	0.000162	1.621484	0.274687	0.000032
1572	1.5631e+02	-8.7047	-101.108046	-0.000020	-0.202685	-0.034336	-0.000004
1573	1.5641e+02	-8.6847	-101.075749	0.000162	1.621484	0.274687	0.000032
1574	1.5651e+02	-8.6651	-101.108046	-0.000162	-1.621484	-0.274687	-0.000032
1575	1.5661e+02	-8.6449	-101.091897	0.000081	0.810742	0.137343	0.000016
1576	1.5671e+02	-8.6253	-101.083823	0.000041	0.405371	0.068672	0.000008
1577	1.5681e+02	-8.6046	-101.075749	0.000041	0.405371	0.068672	0.000008
1578	1.5691e+02	-8.5860	-101.071712	0.000020	0.202685	0.034336	0.000004
1579	1.5701e+02	-8.5659	-101.063637	0.000041	0.405371	0.068672	0.000008
1580	1.5711e+02	-8.5454	-101.027303	0.000182	1.824169	0.309023	0.000037
1581	1.5721e+02	-8.5249	-100.970783	0.000284	2.837597	0.480702	0.000057
1582	1.5731e+02	-8.5053	-100.958672	0.000061	0.608056	0.103008	0.000012
1583	1.5741e+02	-8.4859	-100.958672	0.000000	0.000000	0.000000	0.000000
1584	1.5751e+02	-8.4663	-100.962709	-0.000020	-0.202685	-0.034336	-0.000004
1585	1.5761e+02	-8.4446	-100.918301	0.000223	2.229540	0.377694	0.000045
1586	1.5771e+02	-8.4261	-100.894078	0.000122	1.216113	0.206015	0.000024
1587	1.5781e+02	-8.4054	-100.877929	0.000081	0.810742	0.137343	0.000016
1588	1.5791e+02	-8.3859	-100.809298	0.000345	3.445653	0.583709	0.000069
1589	1.5801e+02	-8.3658	-100.789112	0.000101	1.013427	0.171679	0.000020
1590	1.5811e+02	-8.3461	-100.756815	0.000162	1.621484	0.274687	0.000032
1591	1.5821e+02	-8.3266	-100.728555	0.000142	1.418798	0.240351	0.000028
1592	1.5830e+02	-8.3070	-100.659924	0.000345	3.445653	0.583709	0.000069
1593	1.5840e+02	-8.2856	-100.631664	0.000142	1.418798	0.240351	0.000028
1594	1.5850e+02	-8.2661	-100.599367	0.000162	1.621484	0.274687	0.000032
1595	1.5860e+02	-8.2458	-100.534773	0.000324	3.242968	0.549374	0.000065
1596	1.5870e+02	-8.2272	-100.502476	0.000162	1.621484	0.274687	0.000032
1597	1.5880e+02	-8.2056	-100.445956	0.000284	2.837597	0.480702	0.000057
1598	1.5890e+02	-8.1873	-100.429807	0.000081	0.810742	0.137343	0.000016
1599	1.5900e+02	-8.1668	-100.381362	0.000243	2.432226	0.412030	0.000049
1600	1.5910e+02	-8.1467	-100.304656	0.000385	3.851024	0.652381	0.000077
1601	1.5920e+02	-8.1270	-100.264285	0.000203	2.026855	0.343358	0.000041
1602	1.5930e+02	-8.1075	-100.227950	0.000182	1.824169	0.309023	0.000037
1603	1.5940e+02	-8.0869	-100.175468	0.000263	2.634911	0.446366	0.000053
1604	1.5950e+02	-8.0670	-100.106836	0.000345	3.445653	0.583709	0.000069
1605	1.5960e+02	-8.0482	-100.066465	0.000203	2.026855	0.343358	0.000041
1606	1.5970e+02	-8.0270	-100.005908	0.000304	3.040282	0.515038	0.000061
1607	1.5980e+02	-8.0076	-99.937277	0.000345	3.445653	0.583709	0.000069
1608	1.5990e+02	-7.9871	-99.892868	0.000223	2.229540	0.377694	0.000045
1609	1.6000e+02	-7.9674	-99.787903	0.000527	5.269822	0.892732	0.000105
1610	1.6010e+02	-7.9482	-99.763680	0.000122	1.216113	0.206015	0.000024
1611	1.6019e+02	-7.9282	-99.731383	0.000162	1.621484	0.274687	0.000032
1612	1.6029e+02	-7.9073	-99.650640	0.000405	4.053710	0.686717	0.000081
1613	1.6039e+02	-7.8877	-99.537600	0.000568	5.675193	0.961404	0.000114
1614	1.6049e+02	-7.8673	-99.493192	0.000223	2.229540	0.377694	0.000045
1615	1.6059e+02	-7.8479	-99.432635	0.000304	3.040282	0.515038	0.000061
1616	1.6069e+02	-7.8262	-99.372078	0.000304	3.040282	0.515038	0.000061
1617	1.6079e+02	-7.8094	-99.307483	0.000324	3.242968	0.549374	0.000065
1618	1.6089e+02	-7.7888	-99.222704	0.000426	4.256395	0.721053	0.000085
1619	1.6099e+02	-7.7690	-99.133887	0.000446	4.459080	0.755389	0.000089
1620	1.6109e+02	-7.7495	-99.113701	0.000101	1.013427	0.171679	0.000020
1621	1.6119e+02	-7.7285	-99.004698	0.000547	5.472508	0.927068	0.000110
1622	1.6129e+02	-7.7097	-98.944141	0.000304	3.040282	0.515038	0.000061
1623	1.6139e+02	-7.6880	-98.887621	0.000284	2.837597	0.480702	0.000057
1624	1.6149e+02	-7.6669	-98.778619	0.000547	5.472508	0.927068	0.000110
1625	1.6159e+02	-7.6485	-98.669616	0.000547	5.472508	0.927068	0.000110
1626	1.6169e+02	-7.6294	-98.617133	0.000263	2.634911	0.446366	0.000053
1627	1.6179e+02	-7.6083	-98.520242	0.000486	4.864451	0.824060	0.000097
1628	1.6189e+02	-7.5887	-98.447574	0.000365	3.648339	0.618045	0.000073
1629	1.6199e+02	-7.5671	-98.395091	0.000263	2.634911	0.446366	0.000053
1630	1.6209e+02	-7.5499	-98.318385	0.000385	3.851024	0.652381	0.000077
1631	1.6219e+02	-7.5296	-98.233605	0.000426	4.256395	0.721053	0.000085
1632	1.6228e+02	-7.5099	-98.116528	0.000588	5.877879	0.995740	0.000118
1633	1.6238e+02	-7.4897	-98.047897	0.000345	3.445653	0.583709	0.000069
1634	1.6248e+02	-7.4707	-97.971192	0.000385	3.851024	0.652381	0.000077
1635	1.6258e+02	-7.4500	-97.850077	0.000608	6.080564	1.030075	0.000122
1636	1.6268e+02	-7.4306	-97.781446	0.000345	3.445653	0.583709	0.000069
1637	1.6278e+02	-7.4109	-97.728963	0.000263	2.634911	0.446366	0.000053
1638	1.6288e+02	-7.3901	-97.575552	0.000770	7.702048	1.304762	0.000154
1639	1.6298e+02	-7.3709	-97.543255	0.000162	1.621484	0.274687	0.000032
1640	1.6308e+02	-7.3499	-97.434252	0.000547	5.472508	0.927068	0.000110
1641	1.6318e+02	-7.3306	-97.369658	0.000324	3.242968	0.549374	0.000065
1642	1.6328e+02	-7.3112	-97.260656	0.000547	5.472508	0.927068	0.000110
1643	1.6338e+02	-7.2913	-97.139542	0.000608	6.080564	1.030075	0.000122
1644	1.6348e+02	-7.2707	-97.046687	0.000466	4.661766	0.789725	0.000093
1645	1.6358e+02	-7.2513	-96.957870	0.000446	4.459080	0.755389	0.000089
1646	1.6368e+02	-7.2302	-96.877128	0.000405	4.053710	0.686717	0.000081
1647	1.6378e+02	-7.2116	-96.788311	0.000446	4.459080	0.755389	0.000089
1648	1.6388e+02	-7.1915	-96.703531	0.000426	4.256395	0.721053	0.000085
1649	1.6398e+02	-7.1712	-96.594528	0.000547	5.472508	0.927068	0.000110
1650	1.6408e+02	-7.1515	-96.477451	0.000588	5.877879	0.995740	0.000118
1651	1.6418e+02	-7.1317	-96.364411	0.000568	5.675193	0.961404	0.000114
1652	1.6427e+02	-7.1124	-96.279632	0.000426	4.256395	0.721053	0.000085
1653	1.6437e+02	-7.0912	-96.202926	0.000385	3.851024	0.652381	0.000077
1654	1.6447e+02	-7.0711	-96.085849	0.000588	5.877879	0.995740	0.000118
1655	1.6457e+02	-7.0519	-95.972809	0.000568	5.675193	0.961404	0.000114
1656	1.6467e+02	-7.0332	-95.912252	0.000304	3.040282	0.515038	0.000061
1657	1.6477e+02	-7.0110	-95.807287	0.000527	5.269822	0.892732	0.000105
1658	1.6487e+02	-6.9913	-95.726544	0.000405	4.053710	0.686717	0.000081
1659	1.6497e+02	-6.9722	-95.601393	0.000628	6.283250	1.064411	0.000126
1660	1.6507e+02	-6.9522	-95.528724	0.000365	3.648339	0.618045	0.000073
1661	1.6517e+02	-6.9318	-95.359165	0.000851	8.512790	1.442106	0.000170
1662	1.6527e+02	-6.9121	-95.282459	0.000385	3.851024	0.652381	0.000077
1663	1.6537e+02	-6.8921	-95.193642	0.000446	4.459080	0.755389	0.000089
1664	1.6547e+02	-6.8723	-95.044268	0.000750	7.499363	1.270426	0.000150
1665	1.6557e+02	-6.8518	-94.987748	0.000284	2.837597	0.480702	0.000057
1666	1.6567e+02	-6.8324	-94.858560	0.000649	6.485935	1.098747	0.000130
1667	1.6577e+02	-6.8137	-94.745520	0.000568	5.675193	0.961404	0.000114
1668	1.6587e+02	-6.7929	-94.640555	0.000527	5.269822	0.892732	0.000105
1669	1.6597e+02	-6.7727	-94.547700	0.000466	4.661766	0.789725	0.000093
1670	1.6607e+02	-6.7530	-94.410438	0.000689	6.891306	1.167419	0.000138
1671	1.6616e+02	-6.7336	-94.321621	0.000446	4.459080	0.755389	0.000089
1672	1.6626e+02	-6.7139	-94.212618	0.000547	5.472508	0.927068	0.000110
1673	1.6636e+02	-6.6928	-94.095541	0.000588	5.877879	0.995740	0.000118
1674	1.6646e+02	-6.6730	-94.010761	0.000426	4.256395	0.721053	0.000085
1675	1.6656e+02	-6.6524	-93.885610	0.000628	6.283250	1.064411	0.000126
1676	1.6666e+02	-6.6329	-93.784682	0.000507	5.067137	0.858396	0.000101
1677	1.6676e+02	-6.6141	-93.647419	0.000689	6.891306	1.167419	0.000138
1678	1.6686e+02	-6.5935	-93.562639	0.000426	4.256395	0.721053	0.000085
1679	1.6696e+02	-6.5744	-93.429414	0.000669	6.688621	1.133083	0.000134
1680	1.6706e+02	-6.5530	-93.300225	0.000649	6.485935	1.098747	0.000130
1681	1.6716e+02	-6.5338	-93.158926	0.000709	7.093992	1.201755	0.000142
1682	1.6726e+02	-6.5143	-93.078183	0.000405	4.053710	0.686717	0.000081
1683	1.6736e+02	-6.4931	-92.989366	0.000446	4.459080	0.755389	0.000089
1684	1.6746e+02	-6.4746	-92.839992	0.000750	7.499363	1.270426	0.000150
1685	1.6756e+02	-6.4536	-92.718878	0.000608	6.080564	1.030075	0.000122
1686	1.6766e+02	-6.4348	-92.613912	0.000527	5.269822	0.892732	0.000105
1687	1.6776e+02	-6.4139	-92.541244	0.000365	3.648339	0.618045	0.000073
1688	1.6786e+02	-6.3942	-92.420130	0.000608	6.080564	1.030075	0.000122
1689	1.6796e+02	-6.3747	-92.282867	0.000689	6.891306	1.167419	0.000138
1690	1.6806e+02	-6.3538	-92.169827	0.000568	5.675193	0.961404	0.000114
1691	1.6816e+02	-6.3350	-92.060825	0.000547	5.472508	0.927068	0.000110
1692	1.6825e+02	-6.3141	-91.895302	0.000831	8.310105	1.407770	0.000166
1693	1.6835e+02	-6.2950	-91.834745	0.000304	3.040282	0.515038	0.000061
1694	1.6845e+02	-6.2746	-91.689408	0.000730	7.296677	1.236091	0.000146
1695	1.6855e+02	-6.2547	-91.620777	0.000345	3.445653	0.583709	0.000069
1696	1.6865e+02	-6.2349	-91.491589	0.000649	6.485935	1.098747	0.000130
1697	1.6875e+02	-6.2157	-91.366437	0.000628	6.283250	1.064411	0.000126
1698	1.6885e+02	-6.1955	-91.261472	0.000527	5.269822	0.892732	0.000105
1699	1.6895e+02	-6.1749	-91.108061	0.000770	7.702048	1.304762	0.000154
1700	1.6905e+02	-6.1557	-91.023281	0.000426	4.256395	0.721053	0.000085
1701	1.6915e+02	-6.1359	-90.898130	0.000628	6.283250	1.064411	0.000126
1702	1.6925e+02	-6.1151	-90.785090	0.000568	5.675193	0.961404	0.000114
1703	1.6935e+02	-6.0950	-90.659939	0.000628	6.283250	1.064411	0.000126
1704	1.6945e+02	-6.0753	-90.550936	0.000547	5.472508	0.927068	0.000110
1705	1.6955e+02	-6.0550	-90.409636	0.000709	7.093992	1.201755	0.000142
1706	1.6965e+02	-6.0339	-90.272374	0.000689	6.891306	1.167419	0.000138
1707	1.6975e+02	-6.0143	-90.155297	0.000588	5.877879	0.995740	0.000118
1708	1.6985e+02	-5.9958	-90.098777	0.000284	2.837597	0.480702	0.000057
1709	1.6995e+02	-5.9761	-89.937291	0.000811	8.107419	1.373434	0.000162
1710	1.7005e+02	-5.9564	-89.816177	0.000608	6.080564	1.030075	0.000122
1711	1.7015e+02	-5.9360	-89.711212	0.000527	5.269822	0.892732	0.000105
1712	1.7024e+02	-5.9166	-89.561838	0.000750	7.499363	1.270426	0.000150
1713	1.7034e+02	-5.8962	-89.420538	0.000709	7.093992	1.201755	0.000142
1714	1.7044e+02	-5.8765	-89.351907	0.000345	3.445653	0.583709	0.000069
1715	1.7054e+02	-5.8563	-89.166198	0.000932	9.323532	1.579449	0.000187
1716	1.7064e+02	-5.8366	-89.105641	0.000304	3.040282	0.515038	0.000061
1717	1.7074e+02	-5.8163	-88.968379	0.000689	6.891306	1.167419	0.000138
1718	1.7084e+02	-5.7956	-88.831116	0.000689	6.891306	1.167419	0.000138
1719	1.7094e+02	-5.7771	-88.730188	0.000507	5.067137	0.858396	0.000101
1720	1.7104e+02	-5.7568	-88.564665	0.000831	8.310105	1.407770	0.000166
1721	1.7114e+02	-5.7361	-88.479885	0.000426	4.256395	0.721053	0.000085
1722	1.7124e+02	-5.7173	-88.334549	0.000730	7.296677	1.236091	0.000146
1723	1.7134e+02	-5.6971	-88.197286	0.000689	6.891306	1.167419	0.000138
1724	1.7144e+02	-5.6778	-88.120580	0.000385	3.851024	0.652381	0.000077
1725	1.7154e+02	-5.6577	-87.979281	0.000709	7.093992	1.201755	0.000142
1726	1.7164e+02	-5.6364	-87.874315	0.000527	5.269822	0.892732	0.000105
1727	1.7174e+02	-5.6177	-87.724941	0.000750	7.499363	1.270426	0.000150
1728	1.7184e+02	-5.5963	-87.595753	0.000649	6.485935	1.098747	0.000130
1729	1.7194e+02	-5.5772	-87.478676	0.000588	5.877879	0.995740	0.000118
1730	1.7204e+02	-5.5573	-87.373710	0.000527	5.269822	0.892732	0.000105
1731	1.7213e+02	-5.5367	-87.220299	0.000770	7.702048	1.304762	0.000154
1732	1.7223e+02	-5.5170	-87.087074	0.000669	6.688621	1.133083	0.000134
1733	1.7233e+02	-5.4971	-86.982108	0.000527	5.269822	0.892732	0.000105
1734	1.7243e+02	-5.4782	-86.852920	0.000649	6.485935	1.098747	0.000130
1735	1.7253e+02	-5.4571	-86.683360	0.000851	8.512790	1.442106	0.000170
1736	1.7263e+02	-5.4378	-86.590506	0.000466	4.661766	0.789725	0.000093
1737	1.7273e+02	-5.4179	-86.457280	0.000669	6.688621	1.133083	0.000134
1738	1.7283e+02	-5.3970	-86.328092	0.000649	6.485935	1.098747	0.000130
1739	1.7293e+02	-5.3780	-86.198904	0.000649	6.485935	1.098747	0.000130
1740	1.7303e+02	-5.3582	-86.085864	0.000568	5.675193	0.961404	0.000114
1741	1.7313e+02	-5.3379	-85.940527	0.000730	7.296677	1.236091	0.000146
1742	1.7323e+02	-5.3181	-85.787116	0.000770	7.702048	1.304762	0.000154
1743	1.7333e+02	-5.2982	-85.714447	0.000365	3.648339	0.618045	0.000073
1744	1.7343e+02	-5.2783	-85.573148	0.000709	7.093992	1.201755	0.000142
1745	1.7353e+02	-5.2583	-85.423774	0.000750	7.499363	1.270426	0.000150
1746	1.7363e+02	-5.2390	-85.298622	0.000628	6.283250	1.064411	0.000126
1747	1.7373e+02	-5.2179	-85.185583	0.000568	5.675193	0.961404	0.000114
1748	1.7383e+02	-5.1991	-85.011986	0.000872	8.715475	1.476442	0.000174
1749	1.7393e+02	-5.1785	-84.870686	0.000709	7.093992	1.201755	0.000142
1750	1.7403e+02	-5.1585	-84.761683	0.000547	5.472508	0.927068	0.000110
1751	1.7413e+02	-5.1394	-84.632495	0.000649	6.485935	1.098747	0.000130
1752	1.7422e+02	-5.1187	-84.495232	0.000689	6.891306	1.167419	0.000138
1753	1.7432e+02	-5.0991	-84.398341	0.000486	4.864451	0.824060	0.000097
1754	1.7442e+02	-5.0792	-84.240893	0.000790	7.904734	1.339098	0.000158
1755	1.7452e+02	-5.0601	-84.135927	0.000527	5.269822	0.892732	0.000105
1756	1.7462e+02	-5.0385	-83.958293	0.000892	8.918161	1.510777	0.000179
1757	1.7472e+02	-5.0195	-83.841216	0.000588	5.877879	0.995740	0.000118
1758	1.7482e+02	-4.9992	-83.724140	0.000588	5.877879	0.995740	0.000118
1759	1.7492e+02	-4.9803	-83.582840	0.000709	7.093992	1.201755	0.000142
1760	1.7502e+02	-4.9602	-83.433466	0.000750	7.499363	1.270426	0.000150
1761	1.7512e+02	-4.9399	-83.292166	0.000709	7.093992	1.201755	0.000142
1762	1.7522e+02	-4.9200	-83.162978	0.000649	6.485935	1.098747	0.000130
1763	1.7532e+02	-4.9006	-83.037826	0.000628	6.283250	1.064411	0.000126
1764	1.7542e+02	-4.8806	-82.904601	0.000669	6.688621	1.133083	0.000134
1765	1.7552e+02	-4.8605	-82.714856	0.000953	9.526217	1.613785	0.000191
1766	1.7562e+02	-4.8410	-82.658336	0.000284	2.837597	0.480702	0.000057
1767	1.7572e+02	-4.8206	-82.512999	0.000730	7.296677	1.236091	0.000146
1768	1.7582e+02	-4.8010	-82.351513	0.000811	8.107419	1.373434	0.000162
1769	1.7592e+02	-4.7798	-82.222325	0.000649	6.485935	1.098747	0.000130
1770	1.7602e+02	-4.7609	-82.089100	0.000669	6.688621	1.133083	0.000134
1771	1.7612e+02	-4.7409	-81.967985	0.000608	6.080564	1.030075	0.000122
1772	1.7621e+02	-4.7217	-81.782277	0.000932	9.323532	1.579449	0.000187
1773	1.7631e+02	-4.7009	-81.661163	0.000608	6.080564	1.030075	0.000122
1774	1.7641e+02	-4.6808	-81.471418	0.000953	9.526217	1.613785	0.000191
1775	1.7651e+02	-4.6603	-81.346267	0.000628	6.283250	1.064411	0.000126
1776	1.7661e+02	-4.6420	-81.229190	0.000588	5.877879	0.995740	0.000118
1777	1.7671e+02	-4.6204	-81.091927	0.000689	6.891306	1.167419	0.000138
1778	1.7681e+02	-4.6008	-80.970813	0.000608	6.080564	1.030075	0.000122
1779	1.7691e+02	-4.5811	-80.841625	0.000649	6.485935	1.098747	0.000130
1780	1.7701e+02	-4.5616	-80.696288	0.000730	7.296677	1.236091	0.000146
1781	1.7711e+02	-4.5407	-80.514617	0.000912	9.120846	1.545113	0.000183
1782	1.7721e+02	-4.5206	-80.369280	0.000730	7.296677	1.236091	0.000146
1783	1.7731e+02	-4.5015	-80.227980	0.000709	7.093992	1.201755	0.000142
1784	1.7741e+02	-4.4821	-80.086680	0.000709	7.093992	1.201755	0.000142
1785	1.7751e+02	-4.4623	-79.937306	0.000750	7.499363	1.270426	0.000150
1786	1.7761e+02	-4.4426	-79.812155	0.000628	6.283250	1.064411	0.000126
1787	1.7771e+02	-4.4212	-79.642595	0.000851	8.512790	1.442106	0.000170
1788	1.7781e+02	-4.4020	-79.493221	0.000750	7.499363	1.270426	0.000150
1789	1.7791e+02	-4.3822	-79.404404	0.000446	4.459080	0.755389	0.000089
1790	1.7801e+02	-4.3622	-79.230807	0.000872	8.715475	1.476442	0.000174
1791	1.7810e+02	-4.3420	-79.093545	0.000689	6.891306	1.167419	0.000138
1792	1.7820e+02	-4.3224	-78.887651	0.001034	10.336959	1.751128	0.000207
1793	1.7830e+02	-4.3027	-78.738277	0.000750	7.499363	1.270426	0.000150
1794	1.7840e+02	-4.2829	-78.588903	0.000750	7.499363	1.270426	0.000150
1795	1.7850e+02	-4.2633	-78.483937	0.000527	5.269822	0.892732	0.000105
1796	1.7860e+02	-4.2429	-78.314378	0.000851	8.512790	1.442106	0.000170
1797	1.7870e+02	-4.2218	-78.148855	0.000831	8.310105	1.407770	0.000166
1798	1.7880e+02	-4.2029	-78.035815	0.000568	5.675193	0.961404	0.000114
1799	1.7890e+02	-4.1827	-77.850107	0.000932	9.323532	1.579449	0.000187
1800	1.7900e+02	-4.1632	-77.708807	0.000709	7.093992	1.201755	0.000142
1801	1.7910e+02	-4.1431	-77.547322	0.000811	8.107419	1.373434	0.000162
1802	1.7920e+02	-4.1223	-77.442356	0.000527	5.269822	0.892732	0.000105
1803	1.7930e+02	-4.1034	-77.260685	0.000912	9.120846	1.545113	0.000183
1804	1.7940e+02	-4.0837	-77.079014	0.000912	9.120846	1.545113	0.000183
1805	1.7950e+02	-4.0633	-76.961937	0.000588	5.877879	0.995740	0.000118
1806	1.7960e+02	-4.0439	-76.800452	0.000811	8.107419	1.373434	0.000162
1807	1.7970e+02	-4.0233	-76.626855	0.000872	8.715475	1.476442	0.000174
1808	1.7980e+02	-4.0037	-76.481518	0.000730	7.296677	1.236091	0.000146
1809	1.7990e+02	-3.9831	-76.320033	0.000811	8.107419	1.373434	0.000162
1810	1.8000e+02	-3.9639	-76.154510	0.000831	8.310105	1.407770	0.000166
1811	1.8009e+02	-3.9429	-76.041470	0.000568	5.675193	0.961404	0.000114
1812	1.8019e+02	-3.9235	-75.884022	0.000790	7.904734	1.339098	0.000158
1813	1.8029e+02	-3.9038	-75.746759	0.000689	6.891306	1.167419	0.000138
1814	1.8039e+02	-3.8835	-75.573162	0.000872	8.715475	1.476442	0.000174
1815	1.8049e+02	-3.8634	-75.403603	0.000851	8.512790	1.442106	0.000170
1816	1.8059e+02	-3.8429	-75.209820	0.000973	9.728903	1.648121	0.000195
1817	1.8069e+02	-3.8229	-75.076595	0.000669	6.688621	1.133083	0.000134
1818	1.8079e+02	-3.8038	-74.923184	0.000770	7.702048	1.304762	0.000154
1819	1.8089e+02	-3.7846	-74.781884	0.000709	7.093992	1.201755	0.000142
1820	1.8099e+02	-3.7657	-74.584064	0.000993	9.931588	1.682457	0.000199
1821	1.8109e+02	-3.7446	-74.434690	0.000750	7.499363	1.270426	0.000150
1822	1.8119e+02	-3.7242	-74.281279	0.000770	7.702048	1.304762	0.000154
1823	1.8129e+02	-3.7040	-74.099608	0.000912	9.120846	1.545113	0.000183
1824	1.8139e+02	-3.6847	-73.954271	0.000730	7.296677	1.236091	0.000146
1825	1.8149e+02	-3.6647	-73.804897	0.000750	7.499363	1.270426	0.000150
1826	1.8159e+02	-3.6454	-73.683783	0.000608	6.080564	1.030075	0.000122
1827	1.8169e+02	-3.6249	-73.485963	0.000993	9.931588	1.682457	0.000199
1828	1.8179e+02	-3.6054	-73.312366	0.000872	8.715475	1.476442	0.000174
1829	1.8189e+02	-3.5854	-73.171067	0.000709	7.093992	1.201755	0.000142
1830	1.8199e+02	-3.5637	-72.977284	0.000973	9.728903	1.648121	0.000195
1831	1.8209e+02	-3.5452	-72.848096	0.000649	6.485935	1.098747	0.000130
1832	1.8218e+02	-3.5262	-72.710833	0.000689	6.891306	1.167419	0.000138
1833	1.8228e+02	-3.5059	-72.525125	0.000932	9.323532	1.579449	0.000187
1834	1.8238e+02	-3.4859	-72.371714	0.000770	7.702048	1.304762	0.000154
1835	1.8248e+02	-3.4657	-72.173894	0.000993	9.931588	1.682457	0.000199
1836	1.8258e+02	-3.4460	-72.028557	0.000730	7.296677	1.236091	0.000146
1837	1.8268e+02	-3.4258	-71.871109	0.000790	7.904734	1.339098	0.000158
1838	1.8278e+02	-3.4061	-71.689438	0.000912	9.120846	1.545113	0.000183
1839	1.8288e+02	-3.3853	-71.548138	0.000709	7.093992	1.201755	0.000142
1840	1.8298e+02	-3.3665	-71.394727	0.000770	7.702048	1.304762	0.000154
1841	1.8308e+02	-3.3466	-71.204982	0.000953	9.526217	1.613785	0.000191
1842	1.8318e+02	-3.3263	-71.055608	0.000750	7.499363	1.270426	0.000150
1843	1.8328e+02	-3.3055	-70.894122	0.000811	8.107419	1.373434	0.000162
1844	1.8338e+02	-3.2860	-70.684191	0.001054	10.539645	1.785464	0.000211
1845	1.8348e+02	-3.2664	-70.534817	0.000750	7.499363	1.270426	0.000150
1846	1.8358e+02	-3.2466	-70.357183	0.000892	8.918161	1.510777	0.000179
1847	1.8368e+02	-3.2260	-70.191661	0.000831	8.310105	1.407770	0.000166
1848	1.8378e+02	-3.2060	-70.058435	0.000669	6.688621	1.133083	0.000134
1849	1.8388e+02	-3.1863	-69.816207	0.001216	12.161129	2.060151	0.000243
1850	1.8398e+02	-3.1669	-69.638573	0.000892	8.918161	1.510777	0.000179
1851	1.8407e+02	-3.1468	-69.533607	0.000527	5.269822	0.892732	0.000105
1852	1.8417e+02	-3.1268	-69.388270	0.000730	7.296677	1.236091	0.000146
1853	1.8427e+02	-3.1069	-69.202562	0.000932	9.323532	1.579449	0.000187
1854	1.8437e+02	-3.0869	-68.968408	0.001176	11.755758	1.991479	0.000235
1855	1.8447e+02	-3.0679	-68.831146	0.000689	6.891306	1.167419	0.000138
1856	1.8457e+02	-3.0473	-68.669660	0.000811	8.107419	1.373434	0.000162
1857	1.8467e+02	-3.0268	-68.528361	0.000709	7.093992	1.201755	0.000142
1858	1.8477e+02	-3.0080	-68.314392	0.001074	10.742330	1.819800	0.000215
1859	1.8487e+02	-2.9876	-68.140796	0.000872	8.715475	1.476442	0.000174
1860	1.8497e+02	-2.9675	-68.003533	0.000689	6.891306	1.167419	0.000138
1861	1.8507e+02	-2.9476	-67.817825	0.000932	9.323532	1.579449	0.000187
1862	1.8517e+02	-2.9279	-67.648265	0.000851	8.512790	1.442106	0.000170
1863	1.8527e+02	-2.9074	-67.470631	0.000892	8.918161	1.510777	0.000179
1864	1.8537e+02	-2.8880	-67.309146	0.000811	8.107419	1.373434	0.000162
1865	1.8547e+02	-2.8692	-67.131512	0.000892	8.918161	1.510777	0.000179
1866	1.8557e+02	-2.8481	-66.974063	0.000790	7.904734	1.339098	0.000158
1867	1.8567e+02	-2.8279	-66.784318	0.000953	9.526217	1.613785	0.000191
1868	1.8577e+02	-2.8088	-66.610721	0.000872	8.715475	1.476442	0.000174
1869	1.8587e+02	-2.7881	-66.485570	0.000628	6.283250	1.064411	0.000126
1870	1.8597e+02	-2.7681	-66.279676	0.001034	10.336959	1.751128	0.000207
1871	1.8606e+02	-2.7473	-66.122228	0.000790	7.904734	1.339098	0.000158
1872	1.8616e+02	-2.7286	-65.952668	0.000851	8.512790	1.442106	0.000170
1873	1.8626e+02	-2.7080	-65.746774	0.001034	10.336959	1.751128	0.000207
1874	1.8636e+02	-2.6877	-65.569140	0.000892	8.918161	1.510777	0.000179
1875	1.8646e+02	-2.6683	-65.411692	0.000790	7.904734	1.339098	0.000158
1876	1.8656e+02	-2.6480	-65.238095	0.000872	8.715475	1.476442	0.000174
1877	1.8666e+02	-2.6281	-65.076610	0.000811	8.107419	1.373434	0.000162
1878	1.8676e+02	-2.6083	-64.870716	0.001034	10.336959	1.751128	0.000207
1879	1.8686e+02	-2.5888	-64.701156	0.000851	8.512790	1.442106	0.000170
1880	1.8696e+02	-2.5690	-64.588116	0.000568	5.675193	0.961404	0.000114
1881	1.8706e+02	-2.5488	-64.382222	0.001034	10.336959	1.751128	0.000207
1882	1.8716e+02	-2.5285	-64.220737	0.000811	8.107419	1.373434	0.000162
1883	1.8726e+02	-2.5098	-64.018880	0.001013	10.134274	1.716792	0.000203
1884	1.8736e+02	-2.4906	-63.861432	0.000790	7.904734	1.339098	0.000158
1885	1.8746e+02	-2.4694	-63.699946	0.000811	8.107419	1.373434	0.000162
1886	1.8756e+02	-2.4499	-63.542498	0.000790	7.904734	1.339098	0.000158
1887	1.8766e+02	-2.4298	-63.340641	0.001013	10.134274	1.716792	0.000203
1888	1.8776e+02	-2.4101	-63.191267	0.000750	7.499363	1.270426	0.000150
1889	1.8786e+02	-2.3898	-63.001522	0.000953	9.526217	1.613785	0.000191
1890	1.8796e+02	-2.3694	-62.827925	0.000872	8.715475	1.476442	0.000174
1891	1.8806e+02	-2.3495	-62.646254	0.000912	9.120846	1.545113	0.000183
1892	1.8815e+02	-2.3306	-62.420174	0.001135	11.350387	1.922808	0.000227
1893	1.8825e+02	-2.3099	-62.270800	0.000750	7.499363	1.270426	0.000150
1894	1.8835e+02	-2.2903	-62.113352	0.000790	7.904734	1.339098	0.000158
1895	1.8845e+02	-2.2702	-61.939755	0.000872	8.715475	1.476442	0.000174
1896	1.8855e+02	-2.2504	-61.782307	0.000790	7.904734	1.339098	0.000158
1897	1.8865e+02	-2.2305	-61.564301	0.001095	10.945016	1.854136	0.000219
1898	1.8875e+02	-2.2104	-61.398779	0.000831	8.310105	1.407770	0.000166
1899	1.8885e+02	-2.1913	-61.257479	0.000709	7.093992	1.201755	0.000142
1900	1.8895e+02	-2.1708	-61.019288	0.001196	11.958443	2.025815	0.000239
1901	1.8905e+02	-2.1513	-60.837617	0.000912	9.120846	1.545113	0.000183
1902	1.8915e+02	-2.1313	-60.712466	0.000628	6.283250	1.064411	0.000126
1903	1.8925e+02	-2.1114	-60.490423	0.001115	11.147701	1.888472	0.000223
1904	1.8935e+02	-2.0908	-60.349124	0.000709	7.093992	1.201755	0.000142
1905	1.8945e+02	-2.0697	-60.155341	0.000973	9.728903	1.648121	0.000195
1906	1.8955e+02	-2.0522	-59.993856	0.000811	8.107419	1.373434	0.000162
1907	1.8965e+02	-2.0312	-59.783925	0.001054	10.539645	1.785464	0.000211
1908	1.8975e+02	-2.0123	-59.590142	0.000973	9.728903	1.648121	0.000195
1909	1.8985e+02	-1.9920	-59.432694	0.000790	7.904734	1.339098	0.000158
1910	1.8995e+02	-1.9711	-59.226800	0.001034	10.336959	1.751128	0.000207
1911	1.9004e+02	-1.9516	-59.085500	0.000709	7.093992	1.201755	0.000142
1912	1.9014e+02	-1.9322	-58.895755	0.000953	9.526217	1.613785	0.000191
1913	1.9024e+02	-1.9118	-58.746381	0.000750	7.499363	1.270426	0.000150
1914	1.9034e+02	-1.8912	-58.532412	0.001074	10.742330	1.819800	0.000215
1915	1.9044e+02	-1.8726	-58.358816	0.000872	8.715475	1.476442	0.000174
1916	1.9054e+02	-1.8515	-58.221553	0.000689	6.891306	1.167419	0.000138
1917	1.9064e+02	-1.8317	-58.027771	0.000973	9.728903	1.648121	0.000195
1918	1.9074e+02	-1.8118	-57.833988	0.000973	9.728903	1.648121	0.000195
1919	1.9084e+02	-1.7923	-57.587723	0.001236	12.363814	2.094487	0.000248
1920	1.9094e+02	-1.7731	-57.462572	0.000628	6.283250	1.064411	0.000126
1921	1.9104e+02	-1.7523	-57.288975	0.000872	8.715475	1.476442	0.000174
1922	1.9114e+02	-1.7326	-57.091155	0.000993	9.931588	1.682457	0.000199
1923	1.9124e+02	-1.7125	-56.937744	0.000770	7.702048	1.304762	0.000154
1924	1.9134e+02	-1.6922	-56.703590	0.001176	11.755758	1.991479	0.000235
1925	1.9144e+02	-1.6733	-56.566327	0.000689	6.891306	1.167419	0.000138
1926	1.9154e+02	-1.6526	-56.360433	0.001034	10.336959	1.751128	0.000207
1927	1.9164e+02	-1.6326	-56.170688	0.000953	9.526217	1.613785	0.000191
1928	1.9174e+02	-1.6141	-55.980943	0.000953	9.526217	1.613785	0.000191
1929	1.9184e+02	-1.5926	-55.823494	0.000790	7.904734	1.339098	0.000158
1930	1.9194e+02	-1.5732	-55.637786	0.000932	9.323532	1.579449	0.000187
1931	1.9203e+02	-1.5532	-55.407669	0.001155	11.553072	1.957143	0.000231
1932	1.9213e+02	-1.5337	-55.270407	0.000689	6.891306	1.167419	0.000138
1933	1.9223e+02	-1.5131	-55.072587	0.000993	9.931588	1.682457	0.000199
1934	1.9233e+02	-1.4932	-54.846508	0.001135	11.350387	1.922808	0.000227
1935	1.9243e+02	-1.4735	-54.664836	0.000912	9.120846	1.545113	0.000183
1936	1.9253e+02	-1.4525	-54.515462	0.000750	7.499363	1.270426	0.000150
1937	1.9263e+02	-1.4336	-54.305531	0.001054	10.539645	1.785464	0.000211
1938	1.9273e+02	-1.4130	-54.135972	0.000851	8.512790	1.442106	0.000170
1939	1.9283e+02	-1.3940	-53.938152	0.000993	9.931588	1.682457	0.000199
1940	1.9293e+02	-1.3744	-53.732258	0.001034	10.336959	1.751128	0.000207
1941	1.9303e+02	-1.3535	-53.570773	0.000811	8.107419	1.373434	0.000162
1942	1.9313e+02	-1.3345	-53.381027	0.000953	9.526217	1.613785	0.000191
1943	1.9323e+02	-1.3145	-53.231653	0.000750	7.499363	1.270426	0.000150
1944	1.9333e+02	-1.2949	-53.017685	0.001074	10.742330	1.819800	0.000215
1945	1.9343e+02	-1.2737	-52.795643	0.001115	11.147701	1.888472	0.000223
1946	1.9353e+02	-1.2547	-52.638194	0.000790	7.904734	1.339098	0.000158
1947	1.9363e+02	-1.2347	-52.408078	0.001155	11.553072	1.957143	0.000231
1948	1.9373e+02	-1.2146	-52.226406	0.000912	9.120846	1.545113	0.000183
1949	1.9383e+02	-1.1944	-52.032624	0.000973	9.728903	1.648121	0.000195
1950	1.9393e+02	-1.1748	-51.850953	0.000912	9.120846	1.545113	0.000183
1951	1.9403e+02	-1.1552	-51.665245	0.000932	9.323532	1.579449	0.000187
1952	1.9412e+02	-1.1352	-51.479536	0.000932	9.323532	1.579449	0.000187
1953	1.9422e+02	-1.1139	-51.309977	0.000851	8.512790	1.442106	0.000170
1954	1.9432e+02	-1.0953	-51.108120	0.001013	10.134274	1.716792	0.000203
1955	1.9442e+02	-1.0751	-50.922412	0.000932	9.323532	1.579449	0.000187
1956	1.9452e+02	-1.0558	-50.716518	0.001034	10.336959	1.751128	0.000207
1957	1.9462e+02	-1.0349	-50.498512	0.001095	10.945016	1.854136	0.000219
1958	1.9472e+02	-1.0155	-50.296656	0.001013	10.134274	1.716792	0.000203
1959	1.9482e+02	-0.9956	-50.159393	0.000689	6.891306	1.167419	0.000138
1960	1.9492e+02	-0.9764	-49.880831	0.001399	13.985298	2.369174	0.000280
1961	1.9502e+02	-0.9556	-49.771828	0.000547	5.472508	0.927068	0.000110
1962	1.9512e+02	-0.9352	-49.489228	0.001419	14.187983	2.403509	0.000284
1963	1.9522e+02	-0.9158	-49.291409	0.000993	9.931588	1.682457	0.000199
1964	1.9532e+02	-0.8952	-49.117812	0.000872	8.715475	1.476442	0.000174
1965	1.9542e+02	-0.8752	-48.928067	0.000953	9.526217	1.613785	0.000191
1966	1.9552e+02	-0.8570	-48.730247	0.000993	9.931588	1.682457	0.000199
1967	1.9562e+02	-0.8369	-48.564724	0.000831	8.310105	1.407770	0.000166
1968	1.9572e+02	-0.8164	-48.366905	0.000993	9.931588	1.682457	0.000199
1969	1.9582e+02	-0.7951	-48.189271	0.000892	8.918161	1.510777	0.000179
1970	1.9592e+02	-0.7765	-47.922820	0.001338	13.377241	2.266166	0.000268
1971	1.9601e+02	-0.7566	-47.737112	0.000932	9.323532	1.579449	0.000187
1972	1.9611e+02	-0.7365	-47.527180	0.001054	10.539645	1.785464	0.000211
1973	1.9621e+02	-0.7162	-47.373769	0.000770	7.702048	1.304762	0.000154
1974	1.9631e+02	-0.6958	-47.159801	0.001074	10.742330	1.819800	0.000215
1975	1.9641e+02	-0.6772	-46.949870	0.001054	10.539645	1.785464	0.000211
1976	1.9651e+02	-0.6561	-46.768199	0.000912	9.120846	1.545113	0.000183
1977	1.9661e+02	-0.6373	-46.558268	0.001054	10.539645	1.785464	0.000211
1978	1.9671e+02	-0.6171	-46.388708	0.000851	8.512790	1.442106	0.000170
1979	1.9681e+02	-0.5970	-46.114183	0.001378	13.782612	2.334838	0.000276
1980	1.9691e+02	-0.5759	-45.964809	0.000750	7.499363	1.270426	0.000150
1981	1.9701e+02	-0.5563	-45.762952	0.001013	10.134274	1.716792	0.000203
1982	1.9711e+02	-0.5370	-45.577244	0.000932	9.323532	1.579449	0.000187
1983	1.9721e+02	-0.5160	-45.355201	0.001115	11.147701	1.888472	0.000223
1984	1.9731e+02	-0.4980	-45.137196	0.001095	10.945016	1.854136	0.000219
1985	1.9741e+02	-0.4773	-44.979748	0.000790	7.904734	1.339098	0.000158
1986	1.9751e+02	-0.4568	-44.753668	0.001135	11.350387	1.922808	0.000227
1987	1.9761e+02	-0.4378	-44.551811	0.001013	10.134274	1.716792	0.000203
1988	1.9771e+02	-0.4177	-44.362066	0.000953	9.526217	1.613785	0.000191
1989	1.9781e+02	-0.3983	-44.135986	0.001135	11.350387	1.922808	0.000227
1990	1.9791e+02	-0.3775	-43.950278	0.000932	9.323532	1.579449	0.000187
1991	1.9800e+02	-0.3570	-43.748421	0.001013	10.134274	1.716792	0.000203
1992	1.9810e+02	-0.3387	-43.570787	0.000892	8.918161	1.510777	0.000179
1993	1.9820e+02	-0.3185	-43.340671	0.001155	11.553072	1.957143	0.000231
1994	1.9830e+02	-0.2978	-43.167074	0.000872	8.715475	1.476442	0.000174
1995	1.9840e+02	-0.2783	-42.953106	0.001074	10.742330	1.819800	0.000215
1996	1.9850e+02	-0.2582	-42.735100	0.001095	10.945016	1.854136	0.000219
1997	1.9860e+02	-0.2387	-42.541318	0.000973	9.728903	1.648121	0.000195
1998	1.9870e+02	-0.2173	-42.274867	0.001338	13.377241	2.266166	0.000268
1999	1.9880e+02	-0.1983	-42.125493	0.000750	7.499363	1.270426	0.000150
2000	1.9890e+02	-0.1786	-41.871153	0.001277	12.769185	2.163159	0.000256
2001	1.9900e+02	-0.1582	-41.709668	0.000811	8.107419	1.373434	0.000162
2002	1.9910e+02	-0.1376	-41.511848	0.000993	9.931588	1.682457	0.000199
2003	1.9920e+02	-0.1191	-41.314029	0.000993	9.931588	1.682457	0.000199
2004	1.9930e+02	-0.0990	-41.116209	0.000993	9.931588	1.682457	0.000199
2005	1.9940e+02	-0.0790	-40.882055	0.001176	11.755758	1.991479	0.000235
2006	1.9950e+02	-0.0602	-40.684235	0.000993	9.931588	1.682457	0.000199
2007	1.9960e+02	-0.0378	-40.518713	0.000831	8.310105	1.407770	0.000166
2008	1.9970e+02	-0.0192	-40.260336	0.001297	12.971871	2.197494	0.000260
2009	1.9980e+02	0.0002	-40.090776	0.001297	12.971871	2.197494	0.000170

PMax (uC/cm2):	8.34e+01
Pr (uC/cm2):	9.49e+00
-Pr (uC/cm2):	-5.78e+01
PLoss (uC/cm2):	-5.78e+01
-Vc:	-9.43e-01
C (Max-Eff) (nF):	8.35e-01
K (Eff):	1.41e+03
Vert. (+/-Pr) Shift (uC/cm2):	-2.41e+01
Offset (uC/cm2):	-1.77e+01

A (Loop Area - uC/cm2·Volts):	-2.18e-01



Hysteresis Version: 5.48.1 - Radiant Technologies, Inc., 1999 - 9/12/24

