»»»»»»»»»»»»»»»»»»»»»»»»»»»»»»»»»»»» Hysteresis ««««««««««««««««««««««««««««««««««««
»»»  Executed Version:	5.48.1
»»»  Vision Version:	5.48.4 (R)
»»»  Vision Compiled:	9/18/24
»»»  Driver Version:	5.47.0
»»»  Windows Version:	Windows 8 or 8.1
»»»  Processor Information:	x86 (AMD or Intel) - 32 Processors
»»»  Tester Name:	PMF21124-494 (100V)
»»»  Tester S/N:	PMF21124-494
»»»  Internal Amp Type:	100V RevK 270k
»»»  Internal Amp S/N:	iAB2-596/K     
»»»  Execution Count:	1
»»»»»»»»»»»»»»»»»»»»»»»»»»»»»»»»»»»»»»»»»»««««««««««««««««««««««««««««««««««««««««««

Stored:	7/9/2025 - 17:49:27
Configured:	07/09/25 02:06:30 PM
Executed:	07/09/25 05:49:03 PM

»»»»»»»»»»»»»»»»»»»»»»»»»»»»»»»»»»» Sample Info ««««««««««««««««««««««««««««««««««««
Sample Name:	
Lot Name:	
Wafer Name:	
Die Row/Column:	0/0
Capacitor Number:	0
Sample Area (cm2):	1.00e-04
Sample Thickness (microns):	1.50e-01

Amplifier:	Internal

»»»»»»»»»»»»»»»»»»»»»»»»»»»»»»»»»»» Tester Info «««««««««««««««««««««««««««««««««««
Tester Name:	PMF21124-494 (100V)
Tester Serial Number:	PMF21124-494
Return Signal Amp. Level:	0.19 [Index: 3]

»»»»»»»»»»»»»»»»»»»»»»»»»»»»»»»» Hysteresis Info ««««««««««««««««««««««««««««««««««
Task Name:	Hyst-900
Volts:	10.00
Field:	666.67 (kV/cm)
DCBias:	0.00
DCField:	0.00 (kV/cm)
Hysteresis Period (ms):	1.00e+00
Preset:	Enabled
Preset Delay (ms):	1.00e+03
Profile:	Standard Bipolar

»»»»»»»»»»»»»»»»»»»»»»»»»»»»»»»»»»»»»» Data «««««««««««««««««««««««««««««««««««««««
Points:	2001

Valid Data

Point	Time (ms)	Drive Voltage	Measured Polarization (uC/cm2)	Capacitance (uF)	Normalized Capacitance (uF/cm2)	Dielectric Constant	Instantaneous Current (mA)
   1	0.0000e+00	-0.0001	-2.272651	0.000343	3.432914	0.581551	0.013713
   2	5.0000e-04	0.0108	-2.204088	0.000343	3.432914	0.581551	0.013713
   3	1.0000e-03	0.0282	-2.127460	0.000384	3.836786	0.649969	0.015326
   4	1.5000e-03	0.0480	-1.962102	0.000828	8.279380	1.402565	0.033071
   5	2.0000e-03	0.0672	-1.796745	0.000828	8.279380	1.402565	0.033071
   6	2.5000e-03	0.0877	-1.695918	0.000505	5.048402	0.855223	0.020165
   7	3.0000e-03	0.1077	-1.542660	0.000767	7.673572	1.299938	0.030652
   8	3.5000e-03	0.1278	-1.421667	0.000606	6.058083	1.026267	0.024199
   9	4.0000e-03	0.1472	-1.349071	0.000363	3.634850	0.615760	0.014519
  10	4.5000e-03	0.1670	-1.228079	0.000606	6.058083	1.026267	0.024199
  11	5.0000e-03	0.1873	-1.078854	0.000747	7.471636	1.265729	0.029845
  12	5.5000e-03	0.2066	-0.982060	0.000485	4.846466	0.821014	0.019359
  13	6.0000e-03	0.2277	-0.828802	0.000767	7.673572	1.299938	0.030652
  14	6.5000e-03	0.2475	-0.764272	0.000323	3.230978	0.547342	0.012906
  15	7.0000e-03	0.2677	-0.558584	0.001030	10.298741	1.744654	0.041138
  16	7.5000e-03	0.2874	-0.481955	0.000384	3.836786	0.649969	0.015326
  17	8.0000e-03	0.3085	-0.260135	0.001111	11.106485	1.881490	0.044364
  18	8.5000e-03	0.3275	-0.207705	0.000263	2.625169	0.444716	0.010486
  19	9.0000e-03	0.3471	-0.030248	0.000889	8.885188	1.505192	0.035491
  20	9.5000e-03	0.3675	0.074612	0.000525	5.250339	0.889431	0.020972
  21	1.0000e-02	0.3876	0.155274	0.000404	4.038722	0.684178	0.016132
  22	1.0500e-02	0.4077	0.292400	0.000687	6.865827	1.163103	0.027425
  23	1.1000e-02	0.4276	0.421459	0.000646	6.461955	1.094685	0.025812
  24	1.1500e-02	0.4475	0.518253	0.000485	4.846466	0.821014	0.019359
  25	1.2000e-02	0.4671	0.675544	0.000788	7.875508	1.334147	0.031458
  26	1.2500e-02	0.4874	0.828802	0.000767	7.673572	1.299938	0.030652
  27	1.3000e-02	0.5080	1.135317	0.001535	15.347144	2.599876	0.061303
  28	1.3500e-02	0.5272	1.050622	-0.000424	-4.240658	-0.718387	-0.016939
  29	1.4000e-02	0.5476	1.220012	0.000848	8.481316	1.436774	0.033878
  30	1.4500e-02	0.5677	1.320840	0.000505	5.048402	0.855223	0.020165
  31	1.5000e-02	0.5872	1.461998	0.000707	7.067763	1.197312	0.028232
  32	1.5500e-02	0.6077	1.587024	0.000626	6.260019	1.060476	0.025005
  33	1.6000e-02	0.6280	1.699951	0.000565	5.654211	0.957849	0.022585
  34	1.6500e-02	0.6469	1.865308	0.000828	8.279380	1.402565	0.033071
  35	1.7000e-02	0.6676	1.978235	0.000565	5.654211	0.957849	0.022585
  36	1.7500e-02	0.6876	2.123426	0.000727	7.269700	1.231520	0.029038
  37	1.8000e-02	0.7067	2.228287	0.000525	5.250339	0.889431	0.020972
  38	1.8500e-02	0.7285	2.353313	0.000626	6.260019	1.060476	0.025005
  39	1.9000e-02	0.7475	2.417843	0.000323	3.230978	0.547342	0.012906
  40	1.9500e-02	0.7675	2.603365	0.000929	9.289061	1.573609	0.037105
  41	2.0000e-02	0.7883	2.736457	0.000666	6.663891	1.128894	0.026618
  42	2.0500e-02	0.8075	2.897781	0.000808	8.077444	1.368356	0.032265
  43	2.1000e-02	0.8279	3.030874	0.000666	6.663891	1.128894	0.026618
  44	2.1500e-02	0.8469	3.143800	0.000565	5.654211	0.957849	0.022585
  45	2.2000e-02	0.8680	3.268826	0.000626	6.260019	1.060476	0.025005
  46	2.2500e-02	0.8887	3.385786	0.000586	5.856147	0.992058	0.023392
  47	2.3000e-02	0.9080	3.502746	0.000586	5.856147	0.992058	0.023392
  48	2.3500e-02	0.9273	3.639871	0.000687	6.865827	1.163103	0.027425
  49	2.4000e-02	0.9476	3.817328	0.000889	8.885188	1.505192	0.035491
  50	2.4500e-02	0.9684	3.962519	0.000727	7.269700	1.231520	0.029038
  51	2.5000e-02	0.9875	4.023016	0.000303	3.029041	0.513134	0.012099
  52	2.5500e-02	1.0071	4.156108	0.000666	6.663891	1.128894	0.026618
  53	2.6000e-02	1.0275	4.289200	0.000666	6.663891	1.128894	0.026618
  54	2.6500e-02	1.0474	4.442458	0.000767	7.673572	1.299938	0.030652
  55	2.7000e-02	1.0682	4.539252	0.000485	4.846466	0.821014	0.019359
  56	2.7500e-02	1.0878	4.716709	0.000889	8.885188	1.505192	0.035491
  57	2.8000e-02	1.1096	4.861900	0.000727	7.269700	1.231520	0.029038
  58	2.8500e-02	1.1275	4.990960	0.000646	6.461955	1.094685	0.025812
  59	2.9000e-02	1.1477	5.107919	0.000586	5.856147	0.992058	0.023392
  60	2.9500e-02	1.1683	5.192614	0.000424	4.240658	0.718387	0.016939
  61	3.0000e-02	1.1880	5.341839	0.000747	7.471636	1.265729	0.029845
  62	3.0500e-02	1.2082	5.450733	0.000545	5.452275	0.923640	0.021779
  63	3.1000e-02	1.2280	5.612057	0.000808	8.077444	1.368356	0.032265
  64	3.1500e-02	1.2478	5.696752	0.000424	4.240658	0.718387	0.016939
  65	3.2000e-02	1.2686	5.918572	0.001111	11.106485	1.881490	0.044364
  66	3.2500e-02	1.2878	6.019400	0.000505	5.048402	0.855223	0.020165
  67	3.3000e-02	1.3065	6.148459	0.000646	6.461955	1.094685	0.025812
  68	3.3500e-02	1.3270	6.305750	0.000788	7.875508	1.334147	0.031458
  69	3.4000e-02	1.3461	6.378345	0.000363	3.634850	0.615760	0.014519
  70	3.4500e-02	1.3678	6.559835	0.000909	9.087124	1.539401	0.036298
  71	3.5000e-02	1.3872	6.676795	0.000586	5.856147	0.992058	0.023392
  72	3.5500e-02	1.4069	6.789721	0.000565	5.654211	0.957849	0.022585
  73	3.6000e-02	1.4276	6.918781	0.000646	6.461955	1.094685	0.025812
  74	3.6500e-02	1.4478	7.035741	0.000586	5.856147	0.992058	0.023392
  75	3.7000e-02	1.4673	7.164800	0.000646	6.461955	1.094685	0.025812
  76	3.7500e-02	1.4877	7.346289	0.000909	9.087124	1.539401	0.036298
  77	3.8000e-02	1.5071	7.455183	0.000545	5.452275	0.923640	0.021779
  78	3.8500e-02	1.5274	7.564076	0.000545	5.452275	0.923640	0.021779
  79	3.9000e-02	1.5479	7.664904	0.000505	5.048402	0.855223	0.020165
  80	3.9500e-02	1.5673	7.858493	0.000969	9.692933	1.642027	0.038718
  81	4.0000e-02	1.5866	7.991585	0.000666	6.663891	1.128894	0.026618
  82	4.0500e-02	1.6064	8.128710	0.000687	6.865827	1.163103	0.027425
  83	4.1000e-02	1.6276	8.245670	0.000586	5.856147	0.992058	0.023392
  84	4.1500e-02	1.6480	8.398928	0.000767	7.673572	1.299938	0.030652
  85	4.2000e-02	1.6669	8.523954	0.000626	6.260019	1.060476	0.025005
  86	4.2500e-02	1.6868	8.620748	0.000485	4.846466	0.821014	0.019359
  87	4.3000e-02	1.7081	8.774006	0.000767	7.673572	1.299938	0.030652
  88	4.3500e-02	1.7276	8.943396	0.000848	8.481316	1.436774	0.033878
  89	4.4000e-02	1.7479	9.052290	0.000545	5.452275	0.923640	0.021779
  90	4.4500e-02	1.7670	9.189415	0.000687	6.865827	1.163103	0.027425
  91	4.5000e-02	1.7883	9.294276	0.000525	5.250339	0.889431	0.020972
  92	4.5500e-02	1.8073	9.463666	0.000848	8.481316	1.436774	0.033878
  93	4.6000e-02	1.8275	9.584659	0.000606	6.058083	1.026267	0.024199
  94	4.6500e-02	1.8472	9.677420	0.000464	4.644530	0.786805	0.018552
  95	4.7000e-02	1.8678	9.875042	0.000989	9.894869	1.676236	0.039524
  96	4.7500e-02	1.8880	9.992002	0.000586	5.856147	0.992058	0.023392
  97	4.8000e-02	1.9080	10.104929	0.000565	5.654211	0.957849	0.022585
  98	4.8500e-02	1.9273	10.278352	0.000868	8.683252	1.470983	0.034685
  99	4.9000e-02	1.9470	10.391279	0.000565	5.654211	0.957849	0.022585
 100	4.9500e-02	1.9674	10.492106	0.000505	5.048402	0.855223	0.020165
 101	5.0000e-02	1.9871	10.665529	0.000868	8.683252	1.470983	0.034685
 102	5.0500e-02	2.0071	10.758291	0.000464	4.644530	0.786805	0.018552
 103	5.1000e-02	2.0270	10.871217	0.000565	5.654211	0.957849	0.022585
 104	5.1500e-02	2.0475	11.040607	0.000848	8.481316	1.436774	0.033878
 105	5.2000e-02	2.0679	11.157567	0.000586	5.856147	0.992058	0.023392
 106	5.2500e-02	2.0874	11.306792	0.000747	7.471636	1.265729	0.029845
 107	5.3000e-02	2.1072	11.427785	0.000606	6.058083	1.026267	0.024199
 108	5.3500e-02	2.1277	11.589109	0.000808	8.077444	1.368356	0.032265
 109	5.4000e-02	2.1474	11.689936	0.000505	5.048402	0.855223	0.020165
 110	5.4500e-02	2.1671	11.887558	0.000989	9.894869	1.676236	0.039524
 111	5.5000e-02	2.1878	12.008551	0.000606	6.058083	1.026267	0.024199
 112	5.5500e-02	2.2080	12.097279	0.000444	4.442594	0.752596	0.017746
 113	5.6000e-02	2.2278	12.222305	0.000626	6.260019	1.060476	0.025005
 114	5.6500e-02	2.2478	12.367497	0.000727	7.269700	1.231520	0.029038
 115	5.7000e-02	2.2678	12.480424	0.000565	5.654211	0.957849	0.022585
 116	5.7500e-02	2.2885	12.613516	0.000666	6.663891	1.128894	0.026618
 117	5.8000e-02	2.3085	12.778873	0.000828	8.279380	1.402565	0.033071
 118	5.8500e-02	2.3268	12.907932	0.000646	6.461955	1.094685	0.025812
 119	5.9000e-02	2.3476	13.008760	0.000505	5.048402	0.855223	0.020165
 120	5.9500e-02	2.3666	13.137819	0.000646	6.461955	1.094685	0.025812
 121	6.0000e-02	2.3883	13.311242	0.000868	8.683252	1.470983	0.034685
 122	6.0500e-02	2.4066	13.476599	0.000828	8.279380	1.402565	0.033071
 123	6.1000e-02	2.4277	13.601625	0.000626	6.260019	1.060476	0.025005
 124	6.1500e-02	2.4469	13.714552	0.000565	5.654211	0.957849	0.022585
 125	6.2000e-02	2.4677	13.859743	0.000727	7.269700	1.231520	0.029038
 126	6.2500e-02	2.4879	13.952505	0.000464	4.644530	0.786805	0.018552
 127	6.3000e-02	2.5074	14.089630	0.000687	6.865827	1.163103	0.027425
 128	6.3500e-02	2.5287	14.238855	0.000747	7.471636	1.265729	0.029845
 129	6.4000e-02	2.5483	14.400179	0.000808	8.077444	1.368356	0.032265
 130	6.4500e-02	2.5674	14.541337	0.000707	7.067763	1.197312	0.028232
 131	6.5000e-02	2.5870	14.650231	0.000545	5.452275	0.923640	0.021779
 132	6.5500e-02	2.6077	14.767191	0.000586	5.856147	0.992058	0.023392
 133	6.6000e-02	2.6270	14.892217	0.000626	6.260019	1.060476	0.025005
 134	6.6500e-02	2.6478	15.049507	0.000788	7.875508	1.334147	0.031458
 135	6.7000e-02	2.6675	15.126136	0.000384	3.836786	0.649969	0.015326
 136	6.7500e-02	2.6877	15.295526	0.000848	8.481316	1.436774	0.033878
 137	6.8000e-02	2.7075	15.424586	0.000646	6.461955	1.094685	0.025812
 138	6.8500e-02	2.7277	15.602042	0.000889	8.885188	1.505192	0.035491
 139	6.9000e-02	2.7477	15.775465	0.000868	8.683252	1.470983	0.034685
 140	6.9500e-02	2.7664	15.872260	0.000485	4.846466	0.821014	0.019359
 141	7.0000e-02	2.7869	16.013418	0.000707	7.067763	1.197312	0.028232
 142	7.0500e-02	2.8067	16.094080	0.000404	4.038722	0.684178	0.016132
 143	7.1000e-02	2.8274	16.207007	0.000565	5.654211	0.957849	0.022585
 144	7.1500e-02	2.8479	16.323967	0.000586	5.856147	0.992058	0.023392
 145	7.2000e-02	2.8680	16.505456	0.000909	9.087124	1.539401	0.036298
 146	7.2500e-02	2.8876	16.630482	0.000626	6.260019	1.060476	0.025005
 147	7.3000e-02	2.9077	16.755508	0.000626	6.260019	1.060476	0.025005
 148	7.3500e-02	2.9276	16.828104	0.000363	3.634850	0.615760	0.014519
 149	7.4000e-02	2.9478	17.013626	0.000929	9.289061	1.573609	0.037105
 150	7.4500e-02	2.9671	17.150752	0.000687	6.865827	1.163103	0.027425
 151	7.5000e-02	2.9877	17.336274	0.000929	9.289061	1.573609	0.037105
 152	7.5500e-02	3.0078	17.376605	0.000202	2.019361	0.342089	0.008066
 153	7.6000e-02	3.0282	17.525830	0.000747	7.471636	1.265729	0.029845
 154	7.6500e-02	3.0472	17.679088	0.000767	7.673572	1.299938	0.030652
 155	7.7000e-02	3.0688	17.836379	0.000788	7.875508	1.334147	0.031458
 156	7.7500e-02	3.0875	17.993669	0.000788	7.875508	1.334147	0.031458
 157	7.8000e-02	3.1076	18.062232	0.000343	3.432914	0.581551	0.013713
 158	7.8500e-02	3.1276	18.219523	0.000788	7.875508	1.334147	0.031458
 159	7.9000e-02	3.1479	18.368748	0.000747	7.471636	1.265729	0.029845
 160	7.9500e-02	3.1677	18.497807	0.000646	6.461955	1.094685	0.025812
 161	8.0000e-02	3.1879	18.598634	0.000505	5.048402	0.855223	0.020165
 162	8.0500e-02	3.2080	18.715594	0.000586	5.856147	0.992058	0.023392
 163	8.1000e-02	3.2263	18.860786	0.000727	7.269700	1.231520	0.029038
 164	8.1500e-02	3.2468	18.989845	0.000646	6.461955	1.094685	0.025812
 165	8.2000e-02	3.2672	19.171334	0.000909	9.087124	1.539401	0.036298
 166	8.2500e-02	3.2872	19.284261	0.000565	5.654211	0.957849	0.022585
 167	8.3000e-02	3.3084	19.425419	0.000707	7.067763	1.197312	0.028232
 168	8.3500e-02	3.3276	19.522214	0.000485	4.846466	0.821014	0.019359
 169	8.4000e-02	3.3488	19.655306	0.000666	6.663891	1.128894	0.026618
 170	8.4500e-02	3.3670	19.780332	0.000626	6.260019	1.060476	0.025005
 171	8.5000e-02	3.3875	19.913424	0.000666	6.663891	1.128894	0.026618
 172	8.5500e-02	3.4076	19.977954	0.000323	3.230978	0.547342	0.012906
 173	8.6000e-02	3.4277	20.183642	0.001030	10.298741	1.744654	0.041138
 174	8.6500e-02	3.4479	20.336900	0.000767	7.673572	1.299938	0.030652
 175	8.7000e-02	3.4682	20.433694	0.000485	4.846466	0.821014	0.019359
 176	8.7500e-02	3.4872	20.554687	0.000606	6.058083	1.026267	0.024199
 177	8.8000e-02	3.5086	20.651481	0.000485	4.846466	0.821014	0.019359
 178	8.8500e-02	3.5284	20.816838	0.000828	8.279380	1.402565	0.033071
 179	8.9000e-02	3.5474	20.953964	0.000687	6.865827	1.163103	0.027425
 180	8.9500e-02	3.5684	21.119321	0.000828	8.279380	1.402565	0.033071
 181	9.0000e-02	3.5870	21.171751	0.000263	2.625169	0.444716	0.010486
 182	9.0500e-02	3.6084	21.349207	0.000889	8.885188	1.505192	0.035491
 183	9.1000e-02	3.6276	21.498432	0.000747	7.471636	1.265729	0.029845
 184	9.1500e-02	3.6484	21.566995	0.000343	3.432914	0.581551	0.013713
 185	9.2000e-02	3.6679	21.683955	0.000586	5.856147	0.992058	0.023392
 186	9.2500e-02	3.6878	21.885610	0.001010	10.096805	1.710445	0.040331
 187	9.3000e-02	3.7074	22.010636	0.000626	6.260019	1.060476	0.025005
 188	9.3500e-02	3.7280	22.175993	0.000828	8.279380	1.402565	0.033071
 189	9.4000e-02	3.7479	22.280853	0.000525	5.250339	0.889431	0.020972
 190	9.4500e-02	3.7679	22.389747	0.000545	5.452275	0.923640	0.021779
 191	9.5000e-02	3.7889	22.510740	0.000606	6.058083	1.026267	0.024199
 192	9.5500e-02	3.8074	22.623667	0.000565	5.654211	0.957849	0.022585
 193	9.6000e-02	3.8281	22.780957	0.000788	7.875508	1.334147	0.031458
 194	9.6500e-02	3.8477	22.885818	0.000525	5.250339	0.889431	0.020972
 195	9.7000e-02	3.8676	23.014877	0.000646	6.461955	1.094685	0.025812
 196	9.7500e-02	3.8870	23.164102	0.000747	7.471636	1.265729	0.029845
 197	9.8000e-02	3.9075	23.329459	0.000828	8.279380	1.402565	0.033071
 198	9.8500e-02	3.9274	23.406088	0.000384	3.836786	0.649969	0.015326
 199	9.9000e-02	3.9474	23.514981	0.000545	5.452275	0.923640	0.021779
 200	9.9500e-02	3.9673	23.696471	0.000909	9.087124	1.539401	0.036298
 201	1.0000e-01	3.9880	23.789232	0.000464	4.644530	0.786805	0.018552
 202	1.0050e-01	4.0076	23.877960	0.000444	4.442594	0.752596	0.017746
 203	1.0100e-01	4.0268	24.007019	0.000646	6.461955	1.094685	0.025812
 204	1.0150e-01	4.0475	24.184476	0.000889	8.885188	1.505192	0.035491
 205	1.0200e-01	4.0675	24.281270	0.000485	4.846466	0.821014	0.019359
 206	1.0250e-01	4.0881	24.414362	0.000666	6.663891	1.128894	0.026618
 207	1.0300e-01	4.1071	24.551488	0.000687	6.865827	1.163103	0.027425
 208	1.0350e-01	4.1275	24.692646	0.000707	7.067763	1.197312	0.028232
 209	1.0400e-01	4.1479	24.785407	0.000464	4.644530	0.786805	0.018552
 210	1.0450e-01	4.1681	24.970930	0.000929	9.289061	1.573609	0.037105
 211	1.0500e-01	4.1882	25.104022	0.000666	6.663891	1.128894	0.026618
 212	1.0550e-01	4.2073	25.168552	0.000323	3.230978	0.547342	0.012906
 213	1.0600e-01	4.2273	25.337942	0.000848	8.481316	1.436774	0.033878
 214	1.0650e-01	4.2474	25.426670	0.000444	4.442594	0.752596	0.017746
 215	1.0700e-01	4.2676	25.551696	0.000626	6.260019	1.060476	0.025005
 216	1.0750e-01	4.2889	25.612193	0.000303	3.029041	0.513134	0.012099
 217	1.0800e-01	4.3079	25.789649	0.000889	8.885188	1.505192	0.035491
 218	1.0850e-01	4.3275	25.946940	0.000788	7.875508	1.334147	0.031458
 219	1.0900e-01	4.3480	26.027602	0.000404	4.038722	0.684178	0.016132
 220	1.0950e-01	4.3684	26.140529	0.000565	5.654211	0.957849	0.022585
 221	1.1000e-01	4.3881	26.301853	0.000808	8.077444	1.368356	0.032265
 222	1.1050e-01	4.4086	26.410746	0.000545	5.452275	0.923640	0.021779
 223	1.1100e-01	4.4281	26.519640	0.000545	5.452275	0.923640	0.021779
 224	1.1150e-01	4.4476	26.656765	0.000687	6.865827	1.163103	0.027425
 225	1.1200e-01	4.4684	26.773725	0.000586	5.856147	0.992058	0.023392
 226	1.1250e-01	4.4885	26.910850	0.000687	6.865827	1.163103	0.027425
 227	1.1300e-01	4.5084	26.999579	0.000444	4.442594	0.752596	0.017746
 228	1.1350e-01	4.5277	27.160903	0.000808	8.077444	1.368356	0.032265
 229	1.1400e-01	4.5483	27.245598	0.000424	4.240658	0.718387	0.016939
 230	1.1450e-01	4.5679	27.439186	0.000969	9.692933	1.642027	0.038718
 231	1.1500e-01	4.5880	27.568245	0.000646	6.461955	1.094685	0.025812
 232	1.1550e-01	4.6072	27.665040	0.000485	4.846466	0.821014	0.019359
 233	1.1600e-01	4.6278	27.794099	0.000646	6.461955	1.094685	0.025812
 234	1.1650e-01	4.6479	27.999787	0.001030	10.298741	1.744654	0.041138
 235	1.1700e-01	4.6686	28.044151	0.000222	2.221297	0.376298	0.008873
 236	1.1750e-01	4.6884	28.185310	0.000707	7.067763	1.197312	0.028232
 237	1.1800e-01	4.7076	28.241773	0.000283	2.827105	0.478925	0.011293
 238	1.1850e-01	4.7284	28.411163	0.000848	8.481316	1.436774	0.033878
 239	1.1900e-01	4.7482	28.520057	0.000545	5.452275	0.923640	0.021779
 240	1.1950e-01	4.7690	28.620884	0.000505	5.048402	0.855223	0.020165
 241	1.2000e-01	4.7882	28.786241	0.000828	8.279380	1.402565	0.033071
 242	1.2050e-01	4.8087	28.907234	0.000606	6.058083	1.026267	0.024199
 243	1.2100e-01	4.8294	28.995962	0.000444	4.442594	0.752596	0.017746
 244	1.2150e-01	4.8486	29.153253	0.000788	7.875508	1.334147	0.031458
 245	1.2200e-01	4.8669	29.241981	0.000444	4.442594	0.752596	0.017746
 246	1.2250e-01	4.8877	29.387173	0.000727	7.269700	1.231520	0.029038
 247	1.2300e-01	4.9078	29.488000	0.000505	5.048402	0.855223	0.020165
 248	1.2350e-01	4.9280	29.625126	0.000687	6.865827	1.163103	0.027425
 249	1.2400e-01	4.9489	29.750152	0.000626	6.260019	1.060476	0.025005
 250	1.2450e-01	4.9683	29.850979	0.000505	5.048402	0.855223	0.020165
 251	1.2500e-01	4.9878	29.963906	0.000565	5.654211	0.957849	0.022585
 252	1.2550e-01	5.0092	30.092965	0.000646	6.461955	1.094685	0.025812
 253	1.2600e-01	5.0278	30.213958	0.000606	6.058083	1.026267	0.024199
 254	1.2650e-01	5.0491	30.379315	0.000828	8.279380	1.402565	0.033071
 255	1.2700e-01	5.0684	30.508374	0.000646	6.461955	1.094685	0.025812
 256	1.2750e-01	5.0882	30.633400	0.000626	6.260019	1.060476	0.025005
 257	1.2800e-01	5.1086	30.689864	0.000283	2.827105	0.478925	0.011293
 258	1.2850e-01	5.1284	30.835055	0.000727	7.269700	1.231520	0.029038
 259	1.2900e-01	5.1486	30.972181	0.000687	6.865827	1.163103	0.027425
 260	1.2950e-01	5.1678	31.081074	0.000545	5.452275	0.923640	0.021779
 261	1.3000e-01	5.1880	31.250465	0.000848	8.481316	1.436774	0.033878
 262	1.3050e-01	5.2075	31.290796	0.000202	2.019361	0.342089	0.008066
 263	1.3100e-01	5.2277	31.452119	0.000808	8.077444	1.368356	0.032265
 264	1.3150e-01	5.2484	31.536815	0.000424	4.240658	0.718387	0.016939
 265	1.3200e-01	5.2679	31.665874	0.000646	6.461955	1.094685	0.025812
 266	1.3250e-01	5.2884	31.758635	0.000464	4.644530	0.786805	0.018552
 267	1.3300e-01	5.3082	31.891727	0.000666	6.663891	1.128894	0.026618
 268	1.3350e-01	5.3284	32.004654	0.000565	5.654211	0.957849	0.022585
 269	1.3400e-01	5.3479	32.105481	0.000505	5.048402	0.855223	0.020165
 270	1.3450e-01	5.3680	32.278905	0.000868	8.683252	1.470983	0.034685
 271	1.3500e-01	5.3880	32.379732	0.000505	5.048402	0.855223	0.020165
 272	1.3550e-01	5.4083	32.557188	0.000889	8.885188	1.505192	0.035491
 273	1.3600e-01	5.4282	32.674148	0.000586	5.856147	0.992058	0.023392
 274	1.3650e-01	5.4474	32.738678	0.000323	3.230978	0.547342	0.012906
 275	1.3700e-01	5.4681	32.783042	0.000222	2.221297	0.376298	0.008873
 276	1.3750e-01	5.4883	33.008896	0.001131	11.308422	1.915698	0.045171
 277	1.3800e-01	5.5075	33.097624	0.000444	4.442594	0.752596	0.017746
 278	1.3850e-01	5.5286	33.190385	0.000464	4.644530	0.786805	0.018552
 279	1.3900e-01	5.5478	33.323477	0.000666	6.663891	1.128894	0.026618
 280	1.3950e-01	5.5673	33.468669	0.000727	7.269700	1.231520	0.029038
 281	1.4000e-01	5.5890	33.589662	0.000606	6.058083	1.026267	0.024199
 282	1.4050e-01	5.6079	33.734853	0.000727	7.269700	1.231520	0.029038
 283	1.4100e-01	5.6277	33.787284	0.000263	2.625169	0.444716	0.010486
 284	1.4150e-01	5.6479	33.956674	0.000848	8.481316	1.436774	0.033878
 285	1.4200e-01	5.6677	34.033303	0.000384	3.836786	0.649969	0.015326
 286	1.4250e-01	5.6882	34.158329	0.000626	6.260019	1.060476	0.025005
 287	1.4300e-01	5.7080	34.279322	0.000606	6.058083	1.026267	0.024199
 288	1.4350e-01	5.7278	34.428546	0.000747	7.471636	1.265729	0.029845
 289	1.4400e-01	5.7483	34.521307	0.000464	4.644530	0.786805	0.018552
 290	1.4450e-01	5.7678	34.638267	0.000586	5.856147	0.992058	0.023392
 291	1.4500e-01	5.7880	34.771360	0.000666	6.663891	1.128894	0.026618
 292	1.4550e-01	5.8081	34.868154	0.000485	4.846466	0.821014	0.019359
 293	1.4600e-01	5.8282	34.977048	0.000545	5.452275	0.923640	0.021779
 294	1.4650e-01	5.8478	35.085941	0.000545	5.452275	0.923640	0.021779
 295	1.4700e-01	5.8679	35.198868	0.000565	5.654211	0.957849	0.022585
 296	1.4750e-01	5.8884	35.335993	0.000687	6.865827	1.163103	0.027425
 297	1.4800e-01	5.9085	35.456986	0.000606	6.058083	1.026267	0.024199
 298	1.4850e-01	5.9280	35.573946	0.000586	5.856147	0.992058	0.023392
 299	1.4900e-01	5.9480	35.614277	0.000202	2.019361	0.342089	0.008066
 300	1.4950e-01	5.9682	35.783667	0.000848	8.481316	1.436774	0.033878
 301	1.5000e-01	5.9882	35.949024	0.000828	8.279380	1.402565	0.033071
 302	1.5050e-01	6.0078	36.049852	0.000505	5.048402	0.855223	0.020165
 303	1.5100e-01	6.0278	36.114381	0.000323	3.230978	0.547342	0.012906
 304	1.5150e-01	6.0475	36.223275	0.000545	5.452275	0.923640	0.021779
 305	1.5200e-01	6.0684	36.320069	0.000485	4.846466	0.821014	0.019359
 306	1.5250e-01	6.0876	36.513658	0.000969	9.692933	1.642027	0.038718
 307	1.5300e-01	6.1078	36.602386	0.000444	4.442594	0.752596	0.017746
 308	1.5350e-01	6.1285	36.683048	0.000404	4.038722	0.684178	0.016132
 309	1.5400e-01	6.1481	36.828240	0.000727	7.269700	1.231520	0.029038
 310	1.5450e-01	6.1691	37.110557	0.001414	14.135527	2.394623	0.056463
 311	1.5500e-01	6.1877	37.021829	-0.000444	-4.442594	-0.752596	-0.017746
 312	1.5550e-01	6.2079	37.158954	0.000687	6.865827	1.163103	0.027425
 313	1.5600e-01	6.2287	37.300112	0.000707	7.067763	1.197312	0.028232
 314	1.5650e-01	6.2494	37.453370	0.000767	7.673572	1.299938	0.030652
 315	1.5700e-01	6.2674	37.509834	0.000283	2.827105	0.478925	0.011293
 316	1.5750e-01	6.2885	37.646959	0.000687	6.865827	1.163103	0.027425
 317	1.5800e-01	6.3086	37.759886	0.000565	5.654211	0.957849	0.022585
 318	1.5850e-01	6.3272	37.925243	0.000828	8.279380	1.402565	0.033071
 319	1.5900e-01	6.3477	37.949441	0.000121	1.211617	0.205253	0.004840
 320	1.5950e-01	6.3678	38.082534	0.000666	6.663891	1.128894	0.026618
 321	1.6000e-01	6.3879	38.167229	0.000424	4.240658	0.718387	0.016939
 322	1.6050e-01	6.4075	38.284188	0.000586	5.856147	0.992058	0.023392
 323	1.6100e-01	6.4282	38.385016	0.000505	5.048402	0.855223	0.020165
 324	1.6150e-01	6.4467	38.497943	0.000565	5.654211	0.957849	0.022585
 325	1.6200e-01	6.4679	38.675399	0.000889	8.885188	1.505192	0.035491
 326	1.6250e-01	6.4880	38.760094	0.000424	4.240658	0.718387	0.016939
 327	1.6300e-01	6.5082	38.905286	0.000727	7.269700	1.231520	0.029038
 328	1.6350e-01	6.5271	39.010146	0.000525	5.250339	0.889431	0.020972
 329	1.6400e-01	6.5472	39.123073	0.000565	5.654211	0.957849	0.022585
 330	1.6450e-01	6.5671	39.244066	0.000606	6.058083	1.026267	0.024199
 331	1.6500e-01	6.5875	39.389257	0.000727	7.269700	1.231520	0.029038
 332	1.6550e-01	6.6074	39.473953	0.000424	4.240658	0.718387	0.016939
 333	1.6600e-01	6.6284	39.631243	0.000788	7.875508	1.334147	0.031458
 334	1.6650e-01	6.6479	39.675608	0.000222	2.221297	0.376298	0.008873
 335	1.6700e-01	6.6669	39.768369	0.000464	4.644530	0.786805	0.018552
 336	1.6750e-01	6.6870	39.941792	0.000868	8.683252	1.470983	0.034685
 337	1.6800e-01	6.7078	40.038586	0.000485	4.846466	0.821014	0.019359
 338	1.6850e-01	6.7270	40.139414	0.000505	5.048402	0.855223	0.020165
 339	1.6900e-01	6.7468	40.268473	0.000646	6.461955	1.094685	0.025812
 340	1.6950e-01	6.7676	40.312837	0.000222	2.221297	0.376298	0.008873
 341	1.7000e-01	6.7883	40.482227	0.000848	8.481316	1.436774	0.033878
 342	1.7050e-01	6.8079	40.562889	0.000404	4.038722	0.684178	0.016132
 343	1.7100e-01	6.8277	40.635485	0.000363	3.634850	0.615760	0.014519
 344	1.7150e-01	6.8481	40.752445	0.000586	5.856147	0.992058	0.023392
 345	1.7200e-01	6.8686	40.909736	0.000788	7.875508	1.334147	0.031458
 346	1.7250e-01	6.8875	41.067027	0.000788	7.875508	1.334147	0.031458
 347	1.7300e-01	6.9080	41.139622	0.000363	3.634850	0.615760	0.014519
 348	1.7350e-01	6.9284	41.276748	0.000687	6.865827	1.163103	0.027425
 349	1.7400e-01	6.9476	41.365476	0.000444	4.442594	0.752596	0.017746
 350	1.7450e-01	6.9678	41.442105	0.000384	3.836786	0.649969	0.015326
 351	1.7500e-01	6.9873	41.587296	0.000727	7.269700	1.231520	0.029038
 352	1.7550e-01	7.0074	41.740554	0.000767	7.673572	1.299938	0.030652
 353	1.7600e-01	7.0276	41.792984	0.000263	2.625169	0.444716	0.010486
 354	1.7650e-01	7.0474	41.926077	0.000666	6.663891	1.128894	0.026618
 355	1.7700e-01	7.0673	41.982540	0.000283	2.827105	0.478925	0.011293
 356	1.7750e-01	7.0880	42.123698	0.000707	7.067763	1.197312	0.028232
 357	1.7800e-01	7.1072	42.208393	0.000424	4.240658	0.718387	0.016939
 358	1.7850e-01	7.1280	42.349552	0.000707	7.067763	1.197312	0.028232
 359	1.7900e-01	7.1484	42.462479	0.000565	5.654211	0.957849	0.022585
 360	1.7950e-01	7.1677	42.522975	0.000303	3.029041	0.513134	0.012099
 361	1.8000e-01	7.1875	42.660100	0.000687	6.865827	1.163103	0.027425
 362	1.8050e-01	7.2083	42.756895	0.000485	4.846466	0.821014	0.019359
 363	1.8100e-01	7.2275	42.918219	0.000808	8.077444	1.368356	0.032265
 364	1.8150e-01	7.2481	43.059377	0.000707	7.067763	1.197312	0.028232
 365	1.8200e-01	7.2675	43.111808	0.000263	2.625169	0.444716	0.010486
 366	1.8250e-01	7.2876	43.240867	0.000646	6.461955	1.094685	0.025812
 367	1.8300e-01	7.3071	43.406224	0.000828	8.279380	1.402565	0.033071
 368	1.8350e-01	7.3279	43.515117	0.000545	5.452275	0.923640	0.021779
 369	1.8400e-01	7.3480	43.591746	0.000384	3.836786	0.649969	0.015326
 370	1.8450e-01	7.3683	43.736938	0.000727	7.269700	1.231520	0.029038
 371	1.8500e-01	7.3877	43.821633	0.000424	4.240658	0.718387	0.016939
 372	1.8550e-01	7.4084	43.878096	0.000283	2.827105	0.478925	0.011293
 373	1.8600e-01	7.4274	44.039420	0.000808	8.077444	1.368356	0.032265
 374	1.8650e-01	7.4487	44.140248	0.000505	5.048402	0.855223	0.020165
 375	1.8700e-01	7.4683	44.228976	0.000444	4.442594	0.752596	0.017746
 376	1.8750e-01	7.4884	44.410465	0.000909	9.087124	1.539401	0.036298
 377	1.8800e-01	7.5085	44.474995	0.000323	3.230978	0.547342	0.012906
 378	1.8850e-01	7.5287	44.571789	0.000485	4.846466	0.821014	0.019359
 379	1.8900e-01	7.5470	44.648418	0.000384	3.836786	0.649969	0.015326
 380	1.8950e-01	7.5690	44.773444	0.000626	6.260019	1.060476	0.025005
 381	1.9000e-01	7.5885	44.934768	0.000808	8.077444	1.368356	0.032265
 382	1.9050e-01	7.6080	45.031562	0.000485	4.846466	0.821014	0.019359
 383	1.9100e-01	7.6279	45.092059	0.000303	3.029041	0.513134	0.012099
 384	1.9150e-01	7.6477	45.273548	0.000909	9.087124	1.539401	0.036298
 385	1.9200e-01	7.6678	45.317912	0.000222	2.221297	0.376298	0.008873
 386	1.9250e-01	7.6880	45.430839	0.000565	5.654211	0.957849	0.022585
 387	1.9300e-01	7.7081	45.535700	0.000525	5.250339	0.889431	0.020972
 388	1.9350e-01	7.7283	45.713156	0.000889	8.885188	1.505192	0.035491
 389	1.9400e-01	7.7484	45.769619	0.000283	2.827105	0.478925	0.011293
 390	1.9450e-01	7.7679	45.902712	0.000666	6.663891	1.128894	0.026618
 391	1.9500e-01	7.7881	46.011605	0.000545	5.452275	0.923640	0.021779
 392	1.9550e-01	7.8076	46.108400	0.000485	4.846466	0.821014	0.019359
 393	1.9600e-01	7.8290	46.205194	0.000485	4.846466	0.821014	0.019359
 394	1.9650e-01	7.8479	46.322154	0.000586	5.856147	0.992058	0.023392
 395	1.9700e-01	7.8683	46.443147	0.000606	6.058083	1.026267	0.024199
 396	1.9750e-01	7.8888	46.580272	0.000687	6.865827	1.163103	0.027425
 397	1.9800e-01	7.9077	46.669000	0.000444	4.442594	0.752596	0.017746
 398	1.9850e-01	7.9285	46.769828	0.000505	5.048402	0.855223	0.020165
 399	1.9900e-01	7.9480	46.886788	0.000586	5.856147	0.992058	0.023392
 400	1.9950e-01	7.9681	47.003748	0.000586	5.856147	0.992058	0.023392
 401	2.0000e-01	7.9883	47.136840	0.000666	6.663891	1.128894	0.026618
 402	2.0050e-01	8.0084	47.257833	0.000606	6.058083	1.026267	0.024199
 403	2.0100e-01	8.0283	47.346561	0.000444	4.442594	0.752596	0.017746
 404	2.0150e-01	8.0487	47.435289	0.000444	4.442594	0.752596	0.017746
 405	2.0200e-01	8.0682	47.511918	0.000384	3.836786	0.649969	0.015326
 406	2.0250e-01	8.0884	47.713573	0.001010	10.096805	1.710445	0.040331
 407	2.0300e-01	8.1082	47.737772	0.000121	1.211617	0.205253	0.004840
 408	2.0350e-01	8.1287	47.862798	0.000626	6.260019	1.060476	0.025005
 409	2.0400e-01	8.1488	47.987824	0.000626	6.260019	1.060476	0.025005
 410	2.0450e-01	8.1683	48.040254	0.000263	2.625169	0.444716	0.010486
 411	2.0500e-01	8.1891	48.213677	0.000868	8.683252	1.470983	0.034685
 412	2.0550e-01	8.2086	48.282240	0.000343	3.432914	0.581551	0.013713
 413	2.0600e-01	8.2281	48.459696	0.000889	8.885188	1.505192	0.035491
 414	2.0650e-01	8.2489	48.548424	0.000444	4.442594	0.752596	0.017746
 415	2.0700e-01	8.2690	48.645219	0.000485	4.846466	0.821014	0.019359
 416	2.0750e-01	8.2889	48.782344	0.000687	6.865827	1.163103	0.027425
 417	2.0800e-01	8.3087	48.867039	0.000424	4.240658	0.718387	0.016939
 418	2.0850e-01	8.3282	48.988032	0.000606	6.058083	1.026267	0.024199
 419	2.0900e-01	8.3484	49.092893	0.000525	5.250339	0.889431	0.020972
 420	2.0950e-01	8.3685	49.177588	0.000424	4.240658	0.718387	0.016939
 421	2.1000e-01	8.3888	49.318746	0.000707	7.067763	1.197312	0.028232
 422	2.1050e-01	8.4088	49.395375	0.000384	3.836786	0.649969	0.015326
 423	2.1100e-01	8.4283	49.520401	0.000626	6.260019	1.060476	0.025005
 424	2.1150e-01	8.4479	49.609129	0.000444	4.442594	0.752596	0.017746
 425	2.1200e-01	8.4685	49.685758	0.000384	3.836786	0.649969	0.015326
 426	2.1250e-01	8.4888	49.851115	0.000828	8.279380	1.402565	0.033071
 427	2.1300e-01	8.5095	49.955976	0.000525	5.250339	0.889431	0.020972
 428	2.1350e-01	8.5284	50.072936	0.000586	5.856147	0.992058	0.023392
 429	2.1400e-01	8.5486	50.165697	0.000464	4.644530	0.786805	0.018552
 430	2.1450e-01	8.5684	50.254425	0.000444	4.442594	0.752596	0.017746
 431	2.1500e-01	8.5886	50.391550	0.000687	6.865827	1.163103	0.027425
 432	2.1550e-01	8.6090	50.520610	0.000646	6.461955	1.094685	0.025812
 433	2.1600e-01	8.6285	50.581106	0.000303	3.029041	0.513134	0.012099
 434	2.1650e-01	8.6481	50.722265	0.000707	7.067763	1.197312	0.028232
 435	2.1700e-01	8.6694	50.754529	0.000162	1.615489	0.273671	0.006453
 436	2.1750e-01	8.6877	50.907787	0.000767	7.673572	1.299938	0.030652
 437	2.1800e-01	8.7091	51.052979	0.000727	7.269700	1.231520	0.029038
 438	2.1850e-01	8.7286	51.133641	0.000404	4.038722	0.684178	0.016132
 439	2.1900e-01	8.7482	51.270766	0.000687	6.865827	1.163103	0.027425
 440	2.1950e-01	8.7679	51.359494	0.000444	4.442594	0.752596	0.017746
 441	2.2000e-01	8.7891	51.484520	0.000626	6.260019	1.060476	0.025005
 442	2.2050e-01	8.8086	51.585348	0.000505	5.048402	0.855223	0.020165
 443	2.2100e-01	8.8300	51.629712	0.000222	2.221297	0.376298	0.008873
 444	2.2150e-01	8.8486	51.823300	0.000969	9.692933	1.642027	0.038718
 445	2.2200e-01	8.8681	51.920095	0.000485	4.846466	0.821014	0.019359
 446	2.2250e-01	8.8879	52.004790	0.000424	4.240658	0.718387	0.016939
 447	2.2300e-01	8.9081	52.105617	0.000505	5.048402	0.855223	0.020165
 448	2.2350e-01	8.9282	52.242743	0.000687	6.865827	1.163103	0.027425
 449	2.2400e-01	8.9478	52.375835	0.000666	6.663891	1.128894	0.026618
 450	2.2450e-01	8.9679	52.516993	0.000707	7.067763	1.197312	0.028232
 451	2.2500e-01	8.9880	52.585556	0.000343	3.432914	0.581551	0.013713
 452	2.2550e-01	9.0082	52.670251	0.000424	4.240658	0.718387	0.016939
 453	2.2600e-01	9.0283	52.795277	0.000626	6.260019	1.060476	0.025005
 454	2.2650e-01	9.0479	52.928370	0.000666	6.663891	1.128894	0.026618
 455	2.2700e-01	9.0680	52.980800	0.000263	2.625169	0.444716	0.010486
 456	2.2750e-01	9.0887	53.178422	0.000989	9.894869	1.676236	0.039524
 457	2.2800e-01	9.1086	53.307481	0.000646	6.461955	1.094685	0.025812
 458	2.2850e-01	9.1278	53.376043	0.000343	3.432914	0.581551	0.013713
 459	2.2900e-01	9.1479	53.472838	0.000485	4.846466	0.821014	0.019359
 460	2.2950e-01	9.1681	53.585765	0.000565	5.654211	0.957849	0.022585
 461	2.3000e-01	9.1882	53.775320	0.000949	9.490997	1.607818	0.037911
 462	2.3050e-01	9.2072	53.718857	-0.000283	-2.827105	-0.478925	-0.011293
 463	2.3100e-01	9.2279	53.904379	0.000929	9.289061	1.573609	0.037105
 464	2.3150e-01	9.2480	54.049571	0.000727	7.269700	1.231520	0.029038
 465	2.3200e-01	9.2682	54.106034	0.000283	2.827105	0.478925	0.011293
 466	2.3250e-01	9.2896	54.227027	0.000606	6.058083	1.026267	0.024199
 467	2.3300e-01	9.3091	54.335921	0.000545	5.452275	0.923640	0.021779
 468	2.3350e-01	9.3286	54.493212	0.000788	7.875508	1.334147	0.031458
 469	2.3400e-01	9.3472	54.561774	0.000343	3.432914	0.581551	0.013713
 470	2.3450e-01	9.3683	54.634370	0.000363	3.634850	0.615760	0.014519
 471	2.3500e-01	9.3884	54.803760	0.000848	8.481316	1.436774	0.033878
 472	2.3550e-01	9.4086	54.888455	0.000424	4.240658	0.718387	0.016939
 473	2.3600e-01	9.4269	54.993316	0.000525	5.250339	0.889431	0.020972
 474	2.3650e-01	9.4482	55.114309	0.000606	6.058083	1.026267	0.024199
 475	2.3700e-01	9.4684	55.255467	0.000707	7.067763	1.197312	0.028232
 476	2.3750e-01	9.4879	55.352262	0.000485	4.846466	0.821014	0.019359
 477	2.3800e-01	9.5081	55.465189	0.000565	5.654211	0.957849	0.022585
 478	2.3850e-01	9.5276	55.570049	0.000525	5.250339	0.889431	0.020972
 479	2.3900e-01	9.5477	55.674910	0.000525	5.250339	0.889431	0.020972
 480	2.3950e-01	9.5679	55.795903	0.000606	6.058083	1.026267	0.024199
 481	2.4000e-01	9.5886	55.860432	0.000323	3.230978	0.547342	0.012906
 482	2.4050e-01	9.6082	55.969326	0.000545	5.452275	0.923640	0.021779
 483	2.4100e-01	9.6277	56.158881	0.000949	9.490997	1.607818	0.037911
 484	2.4150e-01	9.6478	56.251643	0.000464	4.644530	0.786805	0.018552
 485	2.4200e-01	9.6680	56.360536	0.000545	5.452275	0.923640	0.021779
 486	2.4250e-01	9.6875	56.457331	0.000485	4.846466	0.821014	0.019359
 487	2.4300e-01	9.7083	56.602522	0.000727	7.269700	1.231520	0.029038
 488	2.4350e-01	9.7284	56.667052	0.000323	3.230978	0.547342	0.012906
 489	2.4400e-01	9.7479	56.828376	0.000808	8.077444	1.368356	0.032265
 490	2.4450e-01	9.7681	56.852574	0.000121	1.211617	0.205253	0.004840
 491	2.4500e-01	9.7876	57.013898	0.000808	8.077444	1.368356	0.032265
 492	2.4550e-01	9.8071	57.163123	0.000747	7.471636	1.265729	0.029845
 493	2.4600e-01	9.8279	57.243785	0.000404	4.038722	0.684178	0.016132
 494	2.4650e-01	9.8480	57.356712	0.000565	5.654211	0.957849	0.022585
 495	2.4700e-01	9.8676	57.453506	0.000485	4.846466	0.821014	0.019359
 496	2.4750e-01	9.8877	57.594665	0.000707	7.067763	1.197312	0.028232
 497	2.4800e-01	9.9084	57.675327	0.000404	4.038722	0.684178	0.016132
 498	2.4850e-01	9.9280	57.872948	0.000989	9.894869	1.676236	0.039524
 499	2.4900e-01	9.9475	57.860849	-0.000061	-0.605808	-0.102627	-0.002420
 500	2.4950e-01	9.9683	58.026206	0.000828	8.279380	1.402565	0.033071
 501	2.5000e-01	9.9884	58.187530	0.000808	8.077444	1.368356	0.032265
 502	2.5050e-01	9.9854	58.094769	0.000464	4.644530	0.786805	-0.018552
 503	2.5100e-01	9.9689	58.042339	0.000263	2.625169	0.444716	-0.010486
 504	2.5150e-01	9.9506	57.981842	0.000303	3.029041	0.513134	-0.012099
 505	2.5200e-01	9.9300	57.969743	0.000061	0.605808	0.102627	-0.002420
 506	2.5250e-01	9.9109	57.913279	0.000283	2.827105	0.478925	-0.011293
 507	2.5300e-01	9.8907	57.889081	0.000121	1.211617	0.205253	-0.004840
 508	2.5350e-01	9.8706	57.852783	0.000182	1.817425	0.307880	-0.007260
 509	2.5400e-01	9.8492	57.796320	0.000283	2.827105	0.478925	-0.011293
 510	2.5450e-01	9.8303	57.772121	0.000121	1.211617	0.205253	-0.004840
 511	2.5500e-01	9.8108	57.679360	0.000464	4.644530	0.786805	-0.018552
 512	2.5550e-01	9.7906	57.610797	0.000343	3.432914	0.581551	-0.013713
 513	2.5600e-01	9.7699	57.622896	-0.000061	-0.605808	-0.102627	0.002420
 514	2.5650e-01	9.7504	57.550301	0.000363	3.634850	0.615760	-0.014519
 515	2.5700e-01	9.7296	57.501903	0.000242	2.423233	0.410507	-0.009679
 516	2.5750e-01	9.7107	57.445440	0.000283	2.827105	0.478925	-0.011293
 517	2.5800e-01	9.6906	57.401076	0.000222	2.221297	0.376298	-0.008873
 518	2.5850e-01	9.6704	57.328480	0.000363	3.634850	0.615760	-0.014519
 519	2.5900e-01	9.6509	57.372844	-0.000222	-2.221297	-0.376298	0.008873
 520	2.5950e-01	9.6307	57.280083	0.000464	4.644530	0.786805	-0.018552
 521	2.6000e-01	9.6106	57.267984	0.000061	0.605808	0.102627	-0.002420
 522	2.6050e-01	9.5905	57.231686	0.000182	1.817425	0.307880	-0.007260
 523	2.6100e-01	9.5700	57.155057	0.000384	3.836786	0.649969	-0.015326
 524	2.6150e-01	9.5508	57.042130	0.000565	5.654211	0.957849	-0.022585
 525	2.6200e-01	9.5300	57.009865	0.000162	1.615489	0.273671	-0.006453
 526	2.6250e-01	9.5105	56.953402	0.000283	2.827105	0.478925	-0.011293
 527	2.6300e-01	9.4910	56.929203	0.000121	1.211617	0.205253	-0.004840
 528	2.6350e-01	9.4702	56.836442	0.000464	4.644530	0.786805	-0.018552
 529	2.6400e-01	9.4513	56.779979	0.000283	2.827105	0.478925	-0.011293
 530	2.6450e-01	9.4305	56.755780	0.000121	1.211617	0.205253	-0.004840
 531	2.6500e-01	9.4110	56.703350	0.000263	2.625169	0.444716	-0.010486
 532	2.6550e-01	9.3915	56.642853	0.000303	3.029041	0.513134	-0.012099
 533	2.6600e-01	9.3701	56.574291	0.000343	3.432914	0.581551	-0.013713
 534	2.6650e-01	9.3500	56.558158	0.000081	0.807744	0.136836	-0.003226
 535	2.6700e-01	9.3301	56.465397	0.000464	4.644530	0.786805	-0.018552
 536	2.6750e-01	9.3109	56.417000	0.000242	2.423233	0.410507	-0.009679
 537	2.6800e-01	9.2908	56.360536	0.000283	2.827105	0.478925	-0.011293
 538	2.6850e-01	9.2712	56.304073	0.000283	2.827105	0.478925	-0.011293
 539	2.6900e-01	9.2505	56.235510	0.000343	3.432914	0.581551	-0.013713
 540	2.6950e-01	9.2303	56.191146	0.000222	2.221297	0.376298	-0.008873
 541	2.7000e-01	9.2102	56.094352	0.000485	4.846466	0.821014	-0.019359
 542	2.7050e-01	9.1907	56.070153	0.000121	1.211617	0.205253	-0.004840
 543	2.7100e-01	9.1705	56.045955	0.000121	1.211617	0.205253	-0.004840
 544	2.7150e-01	9.1510	55.977392	0.000343	3.432914	0.581551	-0.013713
 545	2.7200e-01	9.1302	55.916896	0.000303	3.029041	0.513134	-0.012099
 546	2.7250e-01	9.1107	55.860432	0.000283	2.827105	0.478925	-0.011293
 547	2.7300e-01	9.0906	55.795903	0.000323	3.230978	0.547342	-0.012906
 548	2.7350e-01	9.0698	55.763638	0.000162	1.615489	0.273671	-0.006453
 549	2.7400e-01	9.0506	55.723307	0.000202	2.019361	0.342089	-0.008066
 550	2.7450e-01	9.0311	55.578115	0.000727	7.269700	1.231520	-0.029038
 551	2.7500e-01	9.0109	55.545851	0.000162	1.615489	0.273671	-0.006453
 552	2.7550e-01	8.9905	55.505520	0.000202	2.019361	0.342089	-0.008066
 553	2.7600e-01	8.9716	55.424858	0.000404	4.038722	0.684178	-0.016132
 554	2.7650e-01	8.9496	55.360328	0.000323	3.230978	0.547342	-0.012906
 555	2.7700e-01	8.9313	55.279666	0.000404	4.038722	0.684178	-0.016132
 556	2.7750e-01	8.9111	55.235302	0.000222	2.221297	0.376298	-0.008873
 557	2.7800e-01	8.8916	55.203037	0.000162	1.615489	0.273671	-0.006453
 558	2.7850e-01	8.8715	55.110276	0.000464	4.644530	0.786805	-0.018552
 559	2.7900e-01	8.8516	55.065912	0.000222	2.221297	0.376298	-0.008873
 560	2.7950e-01	8.8300	54.997349	0.000343	3.432914	0.581551	-0.013713
 561	2.8000e-01	8.8110	54.944919	0.000263	2.625169	0.444716	-0.010486
 562	2.8050e-01	8.7915	54.948952	-0.000020	-0.201936	-0.034209	0.000807
 563	2.8100e-01	8.7720	54.783595	0.000828	8.279380	1.402565	-0.033071
 564	2.8150e-01	8.7518	54.743264	0.000202	2.019361	0.342089	-0.008066
 565	2.8200e-01	8.7323	54.686800	0.000283	2.827105	0.478925	-0.011293
 566	2.8250e-01	8.7115	54.626304	0.000303	3.029041	0.513134	-0.012099
 567	2.8300e-01	8.6908	54.577907	0.000242	2.423233	0.410507	-0.009679
 568	2.8350e-01	8.6719	54.473046	0.000525	5.250339	0.889431	-0.020972
 569	2.8400e-01	8.6523	54.428682	0.000222	2.221297	0.376298	-0.008873
 570	2.8450e-01	8.6322	54.396417	0.000162	1.615489	0.273671	-0.006453
 571	2.8500e-01	8.6121	54.251226	0.000727	7.269700	1.231520	-0.029038
 572	2.8550e-01	8.5913	54.222994	0.000141	1.413553	0.239462	-0.005646
 573	2.8600e-01	8.5718	54.190729	0.000162	1.615489	0.273671	-0.006453
 574	2.8650e-01	8.5516	54.122167	0.000343	3.432914	0.581551	-0.013713
 575	2.8700e-01	8.5324	54.033439	0.000444	4.442594	0.752596	-0.017746
 576	2.8750e-01	8.5107	53.952777	0.000404	4.038722	0.684178	-0.016132
 577	2.8800e-01	8.4912	53.896313	0.000283	2.827105	0.478925	-0.011293
 578	2.8850e-01	8.4717	53.843883	0.000263	2.625169	0.444716	-0.010486
 579	2.8900e-01	8.4515	53.775320	0.000343	3.432914	0.581551	-0.013713
 580	2.8950e-01	8.4317	53.698691	0.000384	3.836786	0.649969	-0.015326
 581	2.9000e-01	8.4119	53.646261	0.000263	2.625169	0.444716	-0.010486
 582	2.9050e-01	8.3911	53.589798	0.000283	2.827105	0.478925	-0.011293
 583	2.9100e-01	8.3728	53.505103	0.000424	4.240658	0.718387	-0.016939
 584	2.9150e-01	8.3514	53.396209	0.000545	5.452275	0.923640	-0.021779
 585	2.9200e-01	8.3313	53.396209	-0.000000	-0.000000	-0.000000	0.000000
 586	2.9250e-01	8.3118	53.327646	0.000343	3.432914	0.581551	-0.013713
 587	2.9300e-01	8.2922	53.202620	0.000626	6.260019	1.060476	-0.025005
 588	2.9350e-01	8.2715	53.093727	0.000545	5.452275	0.923640	-0.021779
 589	2.9400e-01	8.2513	53.093727	-0.000000	-0.000000	-0.000000	0.000000
 590	2.9450e-01	8.2318	52.972734	0.000606	6.058083	1.026267	-0.024199
 591	2.9500e-01	8.2141	53.085660	-0.000565	-5.654211	-0.957849	0.022585
 592	2.9550e-01	8.1909	52.811410	0.001373	13.731655	2.326205	-0.054850
 593	2.9600e-01	8.1714	52.795277	0.000081	0.807744	0.136836	-0.003226
 594	2.9650e-01	8.1516	52.742847	0.000263	2.625169	0.444716	-0.010486
 595	2.9700e-01	8.1323	52.674284	0.000343	3.432914	0.581551	-0.013713
 596	2.9750e-01	8.1116	52.621854	0.000263	2.625169	0.444716	-0.010486
 597	2.9800e-01	8.0923	52.565391	0.000283	2.827105	0.478925	-0.011293
 598	2.9850e-01	8.0719	52.416166	0.000747	7.471636	1.265729	-0.029845
 599	2.9900e-01	8.0515	52.355670	0.000303	3.029041	0.513134	-0.012099
 600	2.9950e-01	8.0316	52.303239	0.000263	2.625169	0.444716	-0.010486
 601	3.0000e-01	8.0115	52.262908	0.000202	2.019361	0.342089	-0.008066
 602	3.0050e-01	7.9913	52.174180	0.000444	4.442594	0.752596	-0.017746
 603	3.0100e-01	7.9715	52.065286	0.000545	5.452275	0.923640	-0.021779
 604	3.0150e-01	7.9514	52.037055	0.000141	1.413553	0.239462	-0.005646
 605	3.0200e-01	7.9315	51.964459	0.000363	3.634850	0.615760	-0.014519
 606	3.0250e-01	7.9114	51.899929	0.000323	3.230978	0.547342	-0.012906
 607	3.0300e-01	7.8918	51.819267	0.000404	4.038722	0.684178	-0.016132
 608	3.0350e-01	7.8717	51.750705	0.000343	3.432914	0.581551	-0.013713
 609	3.0400e-01	7.8522	51.653910	0.000485	4.846466	0.821014	-0.019359
 610	3.0450e-01	7.8314	51.589381	0.000323	3.230978	0.547342	-0.012906
 611	3.0500e-01	7.8119	51.512752	0.000384	3.836786	0.649969	-0.015326
 612	3.0550e-01	7.7911	51.411924	0.000505	5.048402	0.855223	-0.020165
 613	3.0600e-01	7.7716	51.355461	0.000283	2.827105	0.478925	-0.011293
 614	3.0650e-01	7.7521	51.298998	0.000283	2.827105	0.478925	-0.011293
 615	3.0700e-01	7.7313	51.190104	0.000545	5.452275	0.923640	-0.021779
 616	3.0750e-01	7.7118	51.198170	-0.000040	-0.403872	-0.068418	0.001613
 617	3.0800e-01	7.6923	51.065078	0.000666	6.663891	1.128894	-0.026618
 618	3.0850e-01	7.6715	50.992482	0.000363	3.634850	0.615760	-0.014519
 619	3.0900e-01	7.6508	50.879555	0.000565	5.654211	0.957849	-0.022585
 620	3.0950e-01	7.6312	50.847291	0.000162	1.615489	0.273671	-0.006453
 621	3.1000e-01	7.6105	50.726298	0.000606	6.058083	1.026267	-0.024199
 622	3.1050e-01	7.5916	50.681934	0.000222	2.221297	0.376298	-0.008873
 623	3.1100e-01	7.5702	50.581106	0.000505	5.048402	0.855223	-0.020165
 624	3.1150e-01	7.5507	50.548841	0.000162	1.615489	0.273671	-0.006453
 625	3.1200e-01	7.5317	50.431881	0.000586	5.856147	0.992058	-0.023392
 626	3.1250e-01	7.5119	50.359286	0.000363	3.634850	0.615760	-0.014519
 627	3.1300e-01	7.4921	50.282657	0.000384	3.836786	0.649969	-0.015326
 628	3.1350e-01	7.4719	50.226193	0.000283	2.827105	0.478925	-0.011293
 629	3.1400e-01	7.4512	50.141498	0.000424	4.240658	0.718387	-0.016939
 630	3.1450e-01	7.4316	50.068903	0.000363	3.634850	0.615760	-0.014519
 631	3.1500e-01	7.4127	49.984208	0.000424	4.240658	0.718387	-0.016939
 632	3.1550e-01	7.3914	49.887413	0.000485	4.846466	0.821014	-0.019359
 633	3.1600e-01	7.3721	49.798685	0.000444	4.442594	0.752596	-0.017746
 634	3.1650e-01	7.3521	49.718023	0.000404	4.038722	0.684178	-0.016132
 635	3.1700e-01	7.3309	49.637361	0.000404	4.038722	0.684178	-0.016132
 636	3.1750e-01	7.3117	49.528467	0.000545	5.452275	0.923640	-0.021779
 637	3.1800e-01	7.2919	49.500236	0.000141	1.413553	0.239462	-0.005646
 638	3.1850e-01	7.2717	49.399408	0.000505	5.048402	0.855223	-0.020165
 639	3.1900e-01	7.2516	49.282448	0.000586	5.856147	0.992058	-0.023392
 640	3.1950e-01	7.2314	49.274382	0.000040	0.403872	0.068418	-0.001613
 641	3.2000e-01	7.2125	49.201786	0.000363	3.634850	0.615760	-0.014519
 642	3.2050e-01	7.1918	49.117091	0.000424	4.240658	0.718387	-0.016939
 643	3.2100e-01	7.1722	49.000131	0.000586	5.856147	0.992058	-0.023392
 644	3.2150e-01	7.1521	48.915436	0.000424	4.240658	0.718387	-0.016939
 645	3.2200e-01	7.1320	48.891238	0.000121	1.211617	0.205253	-0.004840
 646	3.2250e-01	7.1112	48.758146	0.000666	6.663891	1.128894	-0.026618
 647	3.2300e-01	7.0917	48.681517	0.000384	3.836786	0.649969	-0.015326
 648	3.2350e-01	7.0728	48.612954	0.000343	3.432914	0.581551	-0.013713
 649	3.2400e-01	7.0523	48.524226	0.000444	4.442594	0.752596	-0.017746
 650	3.2450e-01	7.0322	48.500027	0.000121	1.211617	0.205253	-0.004840
 651	3.2500e-01	7.0117	48.379034	0.000606	6.058083	1.026267	-0.024199
 652	3.2550e-01	6.9916	48.254008	0.000626	6.260019	1.060476	-0.025005
 653	3.2600e-01	6.9722	48.185446	0.000343	3.432914	0.581551	-0.013713
 654	3.2650e-01	6.9513	48.092684	0.000464	4.644530	0.786805	-0.018552
 655	3.2700e-01	6.9321	47.995890	0.000485	4.846466	0.821014	-0.019359
 656	3.2750e-01	6.9116	47.923294	0.000363	3.634850	0.615760	-0.014519
 657	3.2800e-01	6.8927	47.895062	0.000141	1.413553	0.239462	-0.005646
 658	3.2850e-01	6.8713	47.766003	0.000646	6.461955	1.094685	-0.025812
 659	3.2900e-01	6.8524	47.681308	0.000424	4.240658	0.718387	-0.016939
 660	3.2950e-01	6.8324	47.612746	0.000343	3.432914	0.581551	-0.013713
 661	3.3000e-01	6.8118	47.532084	0.000404	4.038722	0.684178	-0.016132
 662	3.3050e-01	6.7926	47.459488	0.000363	3.634850	0.615760	-0.014519
 663	3.3100e-01	6.7719	47.374793	0.000424	4.240658	0.718387	-0.016939
 664	3.3150e-01	6.7529	47.261866	0.000565	5.654211	0.957849	-0.022585
 665	3.3200e-01	6.7322	47.181204	0.000404	4.038722	0.684178	-0.016132
 666	3.3250e-01	6.7114	47.124741	0.000283	2.827105	0.478925	-0.011293
 667	3.3300e-01	6.6919	47.040046	0.000424	4.240658	0.718387	-0.016939
 668	3.3350e-01	6.6719	46.906953	0.000666	6.663891	1.128894	-0.026618
 669	3.3400e-01	6.6528	46.850490	0.000283	2.827105	0.478925	-0.011293
 670	3.3450e-01	6.6310	46.757729	0.000464	4.644530	0.786805	-0.018552
 671	3.3500e-01	6.6132	46.632703	0.000626	6.260019	1.060476	-0.025005
 672	3.3550e-01	6.5918	46.588339	0.000222	2.221297	0.376298	-0.008873
 673	3.3600e-01	6.5720	46.507677	0.000404	4.038722	0.684178	-0.016132
 674	3.3650e-01	6.5524	46.431048	0.000384	3.836786	0.649969	-0.015326
 675	3.3700e-01	6.5320	46.338286	0.000464	4.644530	0.786805	-0.018552
 676	3.3750e-01	6.5131	46.221327	0.000586	5.856147	0.992058	-0.023392
 677	3.3800e-01	6.4914	46.140665	0.000404	4.038722	0.684178	-0.016132
 678	3.3850e-01	6.4728	46.043870	0.000485	4.846466	0.821014	-0.019359
 679	3.3900e-01	6.4520	46.015639	0.000141	1.413553	0.239462	-0.005646
 680	3.3950e-01	6.4307	45.894646	0.000606	6.058083	1.026267	-0.024199
 681	3.4000e-01	6.4114	45.789785	0.000525	5.250339	0.889431	-0.020972
 682	3.4050e-01	6.3910	45.741388	0.000242	2.423233	0.410507	-0.009679
 683	3.4100e-01	6.3727	45.624428	0.000586	5.856147	0.992058	-0.023392
 684	3.4150e-01	6.3507	45.555865	0.000343	3.432914	0.581551	-0.013713
 685	3.4200e-01	6.3318	45.442939	0.000565	5.654211	0.957849	-0.022585
 686	3.4250e-01	6.3110	45.301780	0.000707	7.067763	1.197312	-0.028232
 687	3.4300e-01	6.2921	45.285648	0.000081	0.807744	0.136836	-0.003226
 688	3.4350e-01	6.2720	45.124324	0.000808	8.077444	1.368356	-0.032265
 689	3.4400e-01	6.2524	45.019463	0.000525	5.250339	0.889431	-0.020972
 690	3.4450e-01	6.2323	44.930735	0.000444	4.442594	0.752596	-0.017746
 691	3.4500e-01	6.2134	44.930735	-0.000000	-0.000000	-0.000000	0.000000
 692	3.4550e-01	6.1920	44.781510	0.000747	7.471636	1.265729	-0.029845
 693	3.4600e-01	6.1725	44.692782	0.000444	4.442594	0.752596	-0.017746
 694	3.4650e-01	6.1530	44.604054	0.000444	4.442594	0.752596	-0.017746
 695	3.4700e-01	6.1323	44.531458	0.000363	3.634850	0.615760	-0.014519
 696	3.4750e-01	6.1121	44.394333	0.000687	6.865827	1.163103	-0.027425
 697	3.4800e-01	6.0925	44.366101	0.000141	1.413553	0.239462	-0.005646
 698	3.4850e-01	6.0727	44.237042	0.000646	6.461955	1.094685	-0.025812
 699	3.4900e-01	6.0529	44.152347	0.000424	4.240658	0.718387	-0.016939
 700	3.4950e-01	6.0321	44.087817	0.000323	3.230978	0.547342	-0.012906
 701	3.5000e-01	6.0120	43.954725	0.000666	6.663891	1.128894	-0.026618
 702	3.5050e-01	5.9924	43.857931	0.000485	4.846466	0.821014	-0.019359
 703	3.5100e-01	5.9717	43.805500	0.000263	2.625169	0.444716	-0.010486
 704	3.5150e-01	5.9521	43.720805	0.000424	4.240658	0.718387	-0.016939
 705	3.5200e-01	5.9326	43.603846	0.000586	5.856147	0.992058	-0.023392
 706	3.5250e-01	5.9125	43.474786	0.000646	6.461955	1.094685	-0.025812
 707	3.5300e-01	5.8917	43.394124	0.000404	4.038722	0.684178	-0.016132
 708	3.5350e-01	5.8722	43.261032	0.000666	6.663891	1.128894	-0.026618
 709	3.5400e-01	5.8527	43.232800	0.000141	1.413553	0.239462	-0.005646
 710	3.5450e-01	5.8325	43.131973	0.000505	5.048402	0.855223	-0.020165
 711	3.5500e-01	5.8124	42.974682	0.000788	7.875508	1.334147	-0.031458
 712	3.5550e-01	5.7912	42.898053	0.000384	3.836786	0.649969	-0.015326
 713	3.5600e-01	5.7715	42.833524	0.000323	3.230978	0.547342	-0.012906
 714	3.5650e-01	5.7526	42.781093	0.000263	2.625169	0.444716	-0.010486
 715	3.5700e-01	5.7312	42.591538	0.000949	9.490997	1.607818	-0.037911
 716	3.5750e-01	5.7123	42.535074	0.000283	2.827105	0.478925	-0.011293
 717	3.5800e-01	5.6921	42.470545	0.000323	3.230978	0.547342	-0.012906
 718	3.5850e-01	5.6720	42.365684	0.000525	5.250339	0.889431	-0.020972
 719	3.5900e-01	5.6528	42.228559	0.000687	6.865827	1.163103	-0.027425
 720	3.5950e-01	5.6323	42.176129	0.000263	2.625169	0.444716	-0.010486
 721	3.6000e-01	5.6122	42.047069	0.000646	6.461955	1.094685	-0.025812
 722	3.6050e-01	5.5927	41.958341	0.000444	4.442594	0.752596	-0.017746
 723	3.6100e-01	5.5716	41.905911	0.000263	2.625169	0.444716	-0.010486
 724	3.6150e-01	5.5530	41.752653	0.000767	7.673572	1.299938	-0.030652
 725	3.6200e-01	5.5316	41.659892	0.000464	4.644530	0.786805	-0.018552
 726	3.6250e-01	5.5121	41.567131	0.000464	4.644530	0.786805	-0.018552
 727	3.6300e-01	5.4932	41.478403	0.000444	4.442594	0.752596	-0.017746
 728	3.6350e-01	5.4724	41.389674	0.000444	4.442594	0.752596	-0.017746
 729	3.6400e-01	5.4532	41.276748	0.000565	5.654211	0.957849	-0.022585
 730	3.6450e-01	5.4318	41.175920	0.000505	5.048402	0.855223	-0.020165
 731	3.6500e-01	5.4112	41.058960	0.000586	5.856147	0.992058	-0.023392
 732	3.6550e-01	5.3922	40.962166	0.000485	4.846466	0.821014	-0.019359
 733	3.6600e-01	5.3711	40.877471	0.000424	4.240658	0.718387	-0.016939
 734	3.6650e-01	5.3522	40.829074	0.000242	2.423233	0.410507	-0.009679
 735	3.6700e-01	5.3326	40.695981	0.000666	6.663891	1.128894	-0.026618
 736	3.6750e-01	5.3125	40.554823	0.000707	7.067763	1.197312	-0.028232
 737	3.6800e-01	5.2911	40.441896	0.000565	5.654211	0.957849	-0.022585
 738	3.6850e-01	5.2721	40.365267	0.000384	3.836786	0.649969	-0.015326
 739	3.6900e-01	5.2527	40.292672	0.000363	3.634850	0.615760	-0.014519
 740	3.6950e-01	5.2319	40.183778	0.000545	5.452275	0.923640	-0.021779
 741	3.7000e-01	5.2118	40.058752	0.000626	6.260019	1.060476	-0.025005
 742	3.7050e-01	5.1913	39.957924	0.000505	5.048402	0.855223	-0.020165
 743	3.7100e-01	5.1721	39.832898	0.000626	6.260019	1.060476	-0.025005
 744	3.7150e-01	5.1517	39.756269	0.000384	3.836786	0.649969	-0.015326
 745	3.7200e-01	5.1324	39.663508	0.000464	4.644530	0.786805	-0.018552
 746	3.7250e-01	5.1120	39.550581	0.000565	5.654211	0.957849	-0.022585
 747	3.7300e-01	5.0922	39.469919	0.000404	4.038722	0.684178	-0.016132
 748	3.7350e-01	5.0720	39.352960	0.000586	5.856147	0.992058	-0.023392
 749	3.7400e-01	5.0513	39.207768	0.000727	7.269700	1.231520	-0.029038
 750	3.7450e-01	5.0314	39.147272	0.000303	3.029041	0.513134	-0.012099
 751	3.7500e-01	5.0128	39.018212	0.000646	6.461955	1.094685	-0.025812
 752	3.7550e-01	4.9921	38.921418	0.000485	4.846466	0.821014	-0.019359
 753	3.7600e-01	4.9728	38.820591	0.000505	5.048402	0.855223	-0.020165
 754	3.7650e-01	4.9524	38.764127	0.000283	2.827105	0.478925	-0.011293
 755	3.7700e-01	4.9325	38.594737	0.000848	8.481316	1.436774	-0.033878
 756	3.7750e-01	4.9121	38.522141	0.000363	3.634850	0.615760	-0.014519
 757	3.7800e-01	4.8926	38.465678	0.000283	2.827105	0.478925	-0.011293
 758	3.7850e-01	4.8724	38.340652	0.000626	6.260019	1.060476	-0.025005
 759	3.7900e-01	4.8521	38.247891	0.000464	4.644530	0.786805	-0.018552
 760	3.7950e-01	4.8329	38.118831	0.000646	6.461955	1.094685	-0.025812
 761	3.8000e-01	4.8135	38.026070	0.000464	4.644530	0.786805	-0.018552
 762	3.8050e-01	4.7920	37.905077	0.000606	6.058083	1.026267	-0.024199
 763	3.8100e-01	4.7717	37.816349	0.000444	4.442594	0.752596	-0.017746
 764	3.8150e-01	4.7522	37.691323	0.000626	6.260019	1.060476	-0.025005
 765	3.8200e-01	4.7321	37.554198	0.000687	6.865827	1.163103	-0.027425
 766	3.8250e-01	4.7121	37.521933	0.000162	1.615489	0.273671	-0.006453
 767	3.8300e-01	4.6919	37.356576	0.000828	8.279380	1.402565	-0.033071
 768	3.8350e-01	4.6725	37.255748	0.000505	5.048402	0.855223	-0.020165
 769	3.8400e-01	4.6516	37.134755	0.000606	6.058083	1.026267	-0.024199
 770	3.8450e-01	4.6320	37.074259	0.000303	3.029041	0.513134	-0.012099
 771	3.8500e-01	4.6115	36.916968	0.000788	7.875508	1.334147	-0.031458
 772	3.8550e-01	4.5915	36.824207	0.000464	4.644530	0.786805	-0.018552
 773	3.8600e-01	4.5712	36.715313	0.000545	5.452275	0.923640	-0.021779
 774	3.8650e-01	4.5521	36.622552	0.000464	4.644530	0.786805	-0.018552
 775	3.8700e-01	4.5323	36.513658	0.000545	5.452275	0.923640	-0.021779
 776	3.8750e-01	4.5123	36.424930	0.000444	4.442594	0.752596	-0.017746
 777	3.8800e-01	4.4925	36.328136	0.000485	4.846466	0.821014	-0.019359
 778	3.8850e-01	4.4711	36.142613	0.000929	9.289061	1.573609	-0.037105
 779	3.8900e-01	4.4525	36.142613	-0.000000	-0.000000	-0.000000	0.000000
 780	3.8950e-01	4.4336	35.957091	0.000929	9.289061	1.573609	-0.037105
 781	3.9000e-01	4.4118	35.803833	0.000767	7.673572	1.299938	-0.030652
 782	3.9050e-01	4.3921	35.771568	0.000162	1.615489	0.273671	-0.006453
 783	3.9100e-01	4.3726	35.670741	0.000505	5.048402	0.855223	-0.020165
 784	3.9150e-01	4.3517	35.545715	0.000626	6.260019	1.060476	-0.025005
 785	3.9200e-01	4.3335	35.432788	0.000565	5.654211	0.957849	-0.022585
 786	3.9250e-01	4.3137	35.323894	0.000545	5.452275	0.923640	-0.021779
 787	3.9300e-01	4.2921	35.186769	0.000687	6.865827	1.163103	-0.027425
 788	3.9350e-01	4.2725	35.017379	0.000848	8.481316	1.436774	-0.033878
 789	3.9400e-01	4.2522	34.968981	0.000242	2.423233	0.410507	-0.009679
 790	3.9450e-01	4.2326	34.839922	0.000646	6.461955	1.094685	-0.025812
 791	3.9500e-01	4.2126	34.747161	0.000464	4.644530	0.786805	-0.018552
 792	3.9550e-01	4.1919	34.642300	0.000525	5.250339	0.889431	-0.020972
 793	3.9600e-01	4.1730	34.517274	0.000626	6.260019	1.060476	-0.025005
 794	3.9650e-01	4.1522	34.432579	0.000424	4.240658	0.718387	-0.016939
 795	3.9700e-01	4.1330	34.347884	0.000424	4.240658	0.718387	-0.016939
 796	3.9750e-01	4.1126	34.186560	0.000808	8.077444	1.368356	-0.032265
 797	3.9800e-01	4.0915	34.109931	0.000384	3.836786	0.649969	-0.015326
 798	3.9850e-01	4.0723	33.944574	0.000828	8.279380	1.402565	-0.033071
 799	3.9900e-01	4.0523	33.880045	0.000323	3.230978	0.547342	-0.012906
 800	3.9950e-01	4.0317	33.730820	0.000747	7.471636	1.265729	-0.029845
 801	4.0000e-01	4.0121	33.634026	0.000485	4.846466	0.821014	-0.019359
 802	4.0050e-01	3.9917	33.517066	0.000586	5.856147	0.992058	-0.023392
 803	4.0100e-01	3.9713	33.388007	0.000646	6.461955	1.094685	-0.025812
 804	4.0150e-01	3.9515	33.299279	0.000444	4.442594	0.752596	-0.017746
 805	4.0200e-01	3.9316	33.146021	0.000767	7.673572	1.299938	-0.030652
 806	4.0250e-01	3.9124	33.073425	0.000363	3.634850	0.615760	-0.014519
 807	4.0300e-01	3.8922	32.924200	0.000747	7.471636	1.265729	-0.029845
 808	4.0350e-01	3.8712	32.843538	0.000404	4.038722	0.684178	-0.016132
 809	4.0400e-01	3.8516	32.698347	0.000727	7.269700	1.231520	-0.029038
 810	4.0450e-01	3.8320	32.597519	0.000505	5.048402	0.855223	-0.020165
 811	4.0500e-01	3.8130	32.520891	0.000384	3.836786	0.649969	-0.015326
 812	4.0550e-01	3.7910	32.391831	0.000646	6.461955	1.094685	-0.025812
 813	4.0600e-01	3.7727	32.246640	0.000727	7.269700	1.231520	-0.029038
 814	4.0650e-01	3.7524	32.165978	0.000404	4.038722	0.684178	-0.016132
 815	4.0700e-01	3.7325	31.996588	0.000848	8.481316	1.436774	-0.033878
 816	4.0750e-01	3.7124	31.932058	0.000323	3.230978	0.547342	-0.012906
 817	4.0800e-01	3.6926	31.835264	0.000485	4.846466	0.821014	-0.019359
 818	4.0850e-01	3.6716	31.706205	0.000646	6.461955	1.094685	-0.025812
 819	4.0900e-01	3.6520	31.540848	0.000828	8.279380	1.402565	-0.033071
 820	4.0950e-01	3.6316	31.423888	0.000586	5.856147	0.992058	-0.023392
 821	4.1000e-01	3.6127	31.355325	0.000343	3.432914	0.581551	-0.013713
 822	4.1050e-01	3.5922	31.202067	0.000767	7.673572	1.299938	-0.030652
 823	4.1100e-01	3.5721	31.101240	0.000505	5.048402	0.855223	-0.020165
 824	4.1150e-01	3.5522	31.004446	0.000485	4.846466	0.821014	-0.019359
 825	4.1200e-01	3.5321	30.923784	0.000404	4.038722	0.684178	-0.016132
 826	4.1250e-01	3.5121	30.802791	0.000606	6.058083	1.026267	-0.024199
 827	4.1300e-01	3.4929	30.629367	0.000868	8.683252	1.470983	-0.034685
 828	4.1350e-01	3.4718	30.536606	0.000464	4.644530	0.786805	-0.018552
 829	4.1400e-01	3.4515	30.431746	0.000525	5.250339	0.889431	-0.020972
 830	4.1450e-01	3.4321	30.306719	0.000626	6.260019	1.060476	-0.025005
 831	4.1500e-01	3.4119	30.137329	0.000848	8.481316	1.436774	-0.033878
 832	4.1550e-01	3.3920	30.056667	0.000404	4.038722	0.684178	-0.016132
 833	4.1600e-01	3.3720	29.959873	0.000485	4.846466	0.821014	-0.019359
 834	4.1650e-01	3.3524	29.826781	0.000666	6.663891	1.128894	-0.026618
 835	4.1700e-01	3.3325	29.689655	0.000687	6.865827	1.163103	-0.027425
 836	4.1750e-01	3.3121	29.548497	0.000707	7.067763	1.197312	-0.028232
 837	4.1800e-01	3.2922	29.447669	0.000505	5.048402	0.855223	-0.020165
 838	4.1850e-01	3.2719	29.330710	0.000586	5.856147	0.992058	-0.023392
 839	4.1900e-01	3.2523	29.225849	0.000525	5.250339	0.889431	-0.020972
 840	4.1950e-01	3.2317	29.076624	0.000747	7.471636	1.265729	-0.029845
 841	4.2000e-01	3.2123	28.987896	0.000444	4.442594	0.752596	-0.017746
 842	4.2050e-01	3.1918	28.830605	0.000788	7.875508	1.334147	-0.031458
 843	4.2100e-01	3.1721	28.721712	0.000545	5.452275	0.923640	-0.021779
 844	4.2150e-01	3.1519	28.600719	0.000606	6.058083	1.026267	-0.024199
 845	4.2200e-01	3.1323	28.451494	0.000747	7.471636	1.265729	-0.029845
 846	4.2250e-01	3.1119	28.350667	0.000505	5.048402	0.855223	-0.020165
 847	4.2300e-01	3.0923	28.229674	0.000606	6.058083	1.026267	-0.024199
 848	4.2350e-01	3.0719	28.108681	0.000606	6.058083	1.026267	-0.024199
 849	4.2400e-01	3.0518	27.959456	0.000747	7.471636	1.265729	-0.029845
 850	4.2450e-01	3.0319	27.907026	0.000263	2.625169	0.444716	-0.010486
 851	4.2500e-01	3.0124	27.765867	0.000707	7.067763	1.197312	-0.028232
 852	4.2550e-01	2.9916	27.636808	0.000646	6.461955	1.094685	-0.025812
 853	4.2600e-01	2.9725	27.527915	0.000545	5.452275	0.923640	-0.021779
 854	4.2650e-01	2.9519	27.398855	0.000646	6.461955	1.094685	-0.025812
 855	4.2700e-01	2.9315	27.261730	0.000687	6.865827	1.163103	-0.027425
 856	4.2750e-01	2.9124	27.152836	0.000545	5.452275	0.923640	-0.021779
 857	4.2800e-01	2.8920	27.035876	0.000586	5.856147	0.992058	-0.023392
 858	4.2850e-01	2.8720	26.898751	0.000687	6.865827	1.163103	-0.027425
 859	4.2900e-01	2.8523	26.745493	0.000767	7.673572	1.299938	-0.030652
 860	4.2950e-01	2.8320	26.592236	0.000767	7.673572	1.299938	-0.030652
 861	4.3000e-01	2.8122	26.471243	0.000606	6.058083	1.026267	-0.024199
 862	4.3050e-01	2.7917	26.422845	0.000242	2.423233	0.410507	-0.009679
 863	4.3100e-01	2.7722	26.237323	0.000929	9.289061	1.573609	-0.037105
 864	4.3150e-01	2.7521	26.136495	0.000505	5.048402	0.855223	-0.020165
 865	4.3200e-01	2.7316	26.055834	0.000404	4.038722	0.684178	-0.016132
 866	4.3250e-01	2.7118	25.914675	0.000707	7.067763	1.197312	-0.028232
 867	4.3300e-01	2.6909	25.773517	0.000707	7.067763	1.197312	-0.028232
 868	4.3350e-01	2.6717	25.644457	0.000646	6.461955	1.094685	-0.025812
 869	4.3400e-01	2.6514	25.531531	0.000565	5.654211	0.957849	-0.022585
 870	4.3450e-01	2.6317	25.406505	0.000626	6.260019	1.060476	-0.025005
 871	4.3500e-01	2.6117	25.289545	0.000586	5.856147	0.992058	-0.023392
 872	4.3550e-01	2.5916	25.091923	0.000989	9.894869	1.676236	-0.039524
 873	4.3600e-01	2.5711	24.995129	0.000485	4.846466	0.821014	-0.019359
 874	4.3650e-01	2.5513	24.874136	0.000606	6.058083	1.026267	-0.024199
 875	4.3700e-01	2.5305	24.769275	0.000525	5.250339	0.889431	-0.020972
 876	4.3750e-01	2.5114	24.644249	0.000626	6.260019	1.060476	-0.025005
 877	4.3800e-01	2.4924	24.571653	0.000363	3.634850	0.615760	-0.014519
 878	4.3850e-01	2.4716	24.361932	0.001050	10.500677	1.778863	-0.041944
 879	4.3900e-01	2.4521	24.228840	0.000666	6.663891	1.128894	-0.026618
 880	4.3950e-01	2.4329	24.136079	0.000464	4.644530	0.786805	-0.018552
 881	4.4000e-01	2.4123	24.015086	0.000606	6.058083	1.026267	-0.024199
 882	4.4050e-01	2.3912	23.873927	0.000707	7.067763	1.197312	-0.028232
 883	4.4100e-01	2.3712	23.720669	0.000767	7.673572	1.299938	-0.030652
 884	4.4150e-01	2.3517	23.603710	0.000586	5.856147	0.992058	-0.023392
 885	4.4200e-01	2.3318	23.514981	0.000444	4.442594	0.752596	-0.017746
 886	4.4250e-01	2.3117	23.345591	0.000848	8.481316	1.436774	-0.033878
 887	4.4300e-01	2.2919	23.228631	0.000586	5.856147	0.992058	-0.023392
 888	4.4350e-01	2.2720	23.067307	0.000808	8.077444	1.368356	-0.032265
 889	4.4400e-01	2.2528	22.958414	0.000545	5.452275	0.923640	-0.021779
 890	4.4450e-01	2.2322	22.861619	0.000485	4.846466	0.821014	-0.019359
 891	4.4500e-01	2.2116	22.724494	0.000687	6.865827	1.163103	-0.027425
 892	4.4550e-01	2.1918	22.579303	0.000727	7.269700	1.231520	-0.029038
 893	4.4600e-01	2.1719	22.470409	0.000545	5.452275	0.923640	-0.021779
 894	4.4650e-01	2.1517	22.309085	0.000808	8.077444	1.368356	-0.032265
 895	4.4700e-01	2.1326	22.184059	0.000626	6.260019	1.060476	-0.025005
 896	4.4750e-01	2.1124	22.050967	0.000666	6.663891	1.128894	-0.026618
 897	4.4800e-01	2.0923	21.962238	0.000444	4.442594	0.752596	-0.017746
 898	4.4850e-01	2.0718	21.845279	0.000586	5.856147	0.992058	-0.023392
 899	4.4900e-01	2.0511	21.647657	0.000989	9.894869	1.676236	-0.039524
 900	4.4950e-01	2.0319	21.510531	0.000687	6.865827	1.163103	-0.027425
 901	4.5000e-01	2.0106	21.437936	0.000363	3.634850	0.615760	-0.014519
 902	4.5050e-01	1.9917	21.308876	0.000646	6.461955	1.094685	-0.025812
 903	4.5100e-01	1.9717	21.171751	0.000687	6.865827	1.163103	-0.027425
 904	4.5150e-01	1.9519	21.066891	0.000525	5.250339	0.889431	-0.020972
 905	4.5200e-01	1.9323	20.962030	0.000525	5.250339	0.889431	-0.020972
 906	4.5250e-01	1.9111	20.720044	0.001212	12.116166	2.052534	-0.048397
 907	4.5300e-01	1.8916	20.627283	0.000464	4.644530	0.786805	-0.018552
 908	4.5350e-01	1.8715	20.490157	0.000687	6.865827	1.163103	-0.027425
 909	4.5400e-01	1.8521	20.401429	0.000444	4.442594	0.752596	-0.017746
 910	4.5450e-01	1.8320	20.236072	0.000828	8.279380	1.402565	-0.033071
 911	4.5500e-01	1.8114	20.090881	0.000727	7.269700	1.231520	-0.029038
 912	4.5550e-01	1.7914	19.981987	0.000545	5.452275	0.923640	-0.021779
 913	4.5600e-01	1.7724	19.860994	0.000606	6.058083	1.026267	-0.024199
 914	4.5650e-01	1.7514	19.735968	0.000626	6.260019	1.060476	-0.025005
 915	4.5700e-01	1.7311	19.562545	0.000868	8.683252	1.470983	-0.034685
 916	4.5750e-01	1.7110	19.469784	0.000464	4.644530	0.786805	-0.018552
 917	4.5800e-01	1.6907	19.352824	0.000586	5.856147	0.992058	-0.023392
 918	4.5850e-01	1.6712	19.171334	0.000909	9.087124	1.539401	-0.036298
 919	4.5900e-01	1.6518	19.086639	0.000424	4.240658	0.718387	-0.016939
 920	4.5950e-01	1.6315	18.965646	0.000606	6.058083	1.026267	-0.024199
 921	4.6000e-01	1.6120	18.788190	0.000889	8.885188	1.505192	-0.035491
 922	4.6050e-01	1.5918	18.711561	0.000384	3.836786	0.649969	-0.015326
 923	4.6100e-01	1.5710	18.546204	0.000828	8.279380	1.402565	-0.033071
 924	4.6150e-01	1.5518	18.368748	0.000889	8.885188	1.505192	-0.035491
 925	4.6200e-01	1.5314	18.231622	0.000687	6.865827	1.163103	-0.027425
 926	4.6250e-01	1.5119	18.102563	0.000646	6.461955	1.094685	-0.025812
 927	4.6300e-01	1.4915	18.029967	0.000363	3.634850	0.615760	-0.014519
 928	4.6350e-01	1.4717	17.860577	0.000848	8.481316	1.436774	-0.033878
 929	4.6400e-01	1.4519	17.687154	0.000868	8.683252	1.470983	-0.034685
 930	4.6450e-01	1.4313	17.626657	0.000303	3.029041	0.513134	-0.012099
 931	4.6500e-01	1.4114	17.481466	0.000727	7.269700	1.231520	-0.029038
 932	4.6550e-01	1.3917	17.356440	0.000626	6.260019	1.060476	-0.025005
 933	4.6600e-01	1.3704	17.215281	0.000707	7.067763	1.197312	-0.028232
 934	4.6650e-01	1.3509	17.033792	0.000909	9.087124	1.539401	-0.036298
 935	4.6700e-01	1.3316	16.908766	0.000626	6.260019	1.060476	-0.025005
 936	4.6750e-01	1.3110	16.763574	0.000727	7.269700	1.231520	-0.029038
 937	4.6800e-01	1.2920	16.634515	0.000646	6.461955	1.094685	-0.025812
 938	4.6850e-01	1.2708	16.469158	0.000828	8.279380	1.402565	-0.033071
 939	4.6900e-01	1.2518	16.344132	0.000626	6.260019	1.060476	-0.025005
 940	4.6950e-01	1.2315	16.243305	0.000505	5.048402	0.855223	-0.020165
 941	4.7000e-01	1.2117	16.102146	0.000707	7.067763	1.197312	-0.028232
 942	4.7050e-01	1.1917	15.973087	0.000646	6.461955	1.094685	-0.025812
 943	4.7100e-01	1.1725	15.807730	0.000828	8.279380	1.402565	-0.033071
 944	4.7150e-01	1.1523	15.723035	0.000424	4.240658	0.718387	-0.016939
 945	4.7200e-01	1.1320	15.541545	0.000909	9.087124	1.539401	-0.036298
 946	4.7250e-01	1.1124	15.420553	0.000606	6.058083	1.026267	-0.024199
 947	4.7300e-01	1.0918	15.323758	0.000485	4.846466	0.821014	-0.019359
 948	4.7350e-01	1.0719	15.110004	0.001070	10.702613	1.813072	-0.042751
 949	4.7400e-01	1.0511	15.001110	0.000545	5.452275	0.923640	-0.021779
 950	4.7450e-01	1.0323	14.843819	0.000788	7.875508	1.334147	-0.031458
 951	4.7500e-01	1.0123	14.755091	0.000444	4.442594	0.752596	-0.017746
 952	4.7550e-01	0.9931	14.670396	0.000424	4.240658	0.718387	-0.016939
 953	4.7600e-01	0.9718	14.509072	0.000808	8.077444	1.368356	-0.032265
 954	4.7650e-01	0.9515	14.367914	0.000707	7.067763	1.197312	-0.028232
 955	4.7700e-01	0.9322	14.218689	0.000747	7.471636	1.265729	-0.029845
 956	4.7750e-01	0.9109	14.025100	0.000969	9.692933	1.642027	-0.038718
 957	4.7800e-01	0.8926	13.940405	0.000424	4.240658	0.718387	-0.016939
 958	4.7850e-01	0.8716	13.779081	0.000808	8.077444	1.368356	-0.032265
 959	4.7900e-01	0.8514	13.702453	0.000384	3.836786	0.649969	-0.015326
 960	4.7950e-01	0.8316	13.520963	0.000909	9.087124	1.539401	-0.036298
 961	4.8000e-01	0.8118	13.379805	0.000707	7.067763	1.197312	-0.028232
 962	4.8050e-01	0.7922	13.214448	0.000828	8.279380	1.402565	-0.033071
 963	4.8100e-01	0.7718	13.093455	0.000606	6.058083	1.026267	-0.024199
 964	4.8150e-01	0.7504	12.940197	0.000767	7.673572	1.299938	-0.030652
 965	4.8200e-01	0.7321	12.803072	0.000687	6.865827	1.163103	-0.027425
 966	4.8250e-01	0.7114	12.661913	0.000707	7.067763	1.197312	-0.028232
 967	4.8300e-01	0.6908	12.561086	0.000505	5.048402	0.855223	-0.020165
 968	4.8350e-01	0.6720	12.407828	0.000767	7.673572	1.299938	-0.030652
 969	4.8400e-01	0.6519	12.278769	0.000646	6.461955	1.094685	-0.025812
 970	4.8450e-01	0.6313	12.093246	0.000929	9.289061	1.573609	-0.037105
 971	4.8500e-01	0.6110	11.972253	0.000606	6.058083	1.026267	-0.024199
 972	4.8550e-01	0.5917	11.843194	0.000646	6.461955	1.094685	-0.025812
 973	4.8600e-01	0.5716	11.750433	0.000464	4.644530	0.786805	-0.018552
 974	4.8650e-01	0.5515	11.585076	0.000828	8.279380	1.402565	-0.033071
 975	4.8700e-01	0.5313	11.447950	0.000687	6.865827	1.163103	-0.027425
 976	4.8750e-01	0.5119	11.326957	0.000606	6.058083	1.026267	-0.024199
 977	4.8800e-01	0.4917	11.173700	0.000767	7.673572	1.299938	-0.030652
 978	4.8850e-01	0.4718	11.012376	0.000808	8.077444	1.368356	-0.032265
 979	4.8900e-01	0.4512	10.867184	0.000727	7.269700	1.231520	-0.029038
 980	4.8950e-01	0.4321	10.742158	0.000626	6.260019	1.060476	-0.025005
 981	4.9000e-01	0.4115	10.572768	0.000848	8.481316	1.436774	-0.033878
 982	4.9050e-01	0.3916	10.471941	0.000505	5.048402	0.855223	-0.020165
 983	4.9100e-01	0.3714	10.294484	0.000889	8.885188	1.505192	-0.035491
 984	4.9150e-01	0.3513	10.157359	0.000687	6.865827	1.163103	-0.027425
 985	4.9200e-01	0.3316	9.983936	0.000868	8.683252	1.470983	-0.034685
 986	4.9250e-01	0.3107	9.862943	0.000606	6.058083	1.026267	-0.024199
 987	4.9300e-01	0.2909	9.745983	0.000586	5.856147	0.992058	-0.023392
 988	4.9350e-01	0.2724	9.620957	0.000626	6.260019	1.060476	-0.025005
 989	4.9400e-01	0.2521	9.491898	0.000646	6.461955	1.094685	-0.025812
 990	4.9450e-01	0.2312	9.378971	0.000565	5.654211	0.957849	-0.022585
 991	4.9500e-01	0.2108	9.201514	0.000889	8.885188	1.505192	-0.035491
 992	4.9550e-01	0.1915	9.112786	0.000444	4.442594	0.752596	-0.017746
 993	4.9600e-01	0.1715	8.983727	0.000646	6.461955	1.094685	-0.025812
 994	4.9650e-01	0.1511	8.834502	0.000747	7.471636	1.265729	-0.029845
 995	4.9700e-01	0.1319	8.640914	0.000969	9.692933	1.642027	-0.038718
 996	4.9750e-01	0.1115	8.491689	0.000747	7.471636	1.265729	-0.029845
 997	4.9800e-01	0.0912	8.378762	0.000565	5.654211	0.957849	-0.022585
 998	4.9850e-01	0.0714	8.217438	0.000808	8.077444	1.368356	-0.032265
 999	4.9900e-01	0.0503	8.100479	0.000586	5.856147	0.992058	-0.023392
1000	4.9950e-01	0.0317	7.935122	0.000828	8.279380	1.402565	-0.033071
1001	5.0000e-01	0.0117	7.826228	0.000545	5.452275	0.923640	-0.021779
1002	5.0050e-01	-0.0091	7.693136	0.000666	6.663891	1.128894	-0.026618
1003	5.0100e-01	-0.0281	7.503580	0.000949	9.490997	1.607818	-0.037911
1004	5.0150e-01	-0.0470	7.447117	0.000283	2.827105	0.478925	-0.011293
1005	5.0200e-01	-0.0671	7.277726	0.000848	8.481316	1.436774	-0.033878
1006	5.0250e-01	-0.0867	7.168833	0.000545	5.452275	0.923640	-0.021779
1007	5.0300e-01	-0.1070	6.987343	0.000909	9.087124	1.539401	-0.036298
1008	5.0350e-01	-0.1271	6.850218	0.000687	6.865827	1.163103	-0.027425
1009	5.0400e-01	-0.1469	6.684861	0.000828	8.279380	1.402565	-0.033071
1010	5.0450e-01	-0.1675	6.584033	0.000505	5.048402	0.855223	-0.020165
1011	5.0500e-01	-0.1868	6.463041	0.000606	6.058083	1.026267	-0.024199
1012	5.0550e-01	-0.2074	6.305750	0.000788	7.875508	1.334147	-0.031458
1013	5.0600e-01	-0.2272	6.128293	0.000889	8.885188	1.505192	-0.035491
1014	5.0650e-01	-0.2470	6.027466	0.000505	5.048402	0.855223	-0.020165
1015	5.0700e-01	-0.2669	5.858076	0.000848	8.481316	1.436774	-0.033878
1016	5.0750e-01	-0.2876	5.688686	0.000848	8.481316	1.436774	-0.033878
1017	5.0800e-01	-0.3074	5.559626	0.000646	6.461955	1.094685	-0.025812
1018	5.0850e-01	-0.3275	5.398302	0.000808	8.077444	1.368356	-0.032265
1019	5.0900e-01	-0.3468	5.281343	0.000586	5.856147	0.992058	-0.023392
1020	5.0950e-01	-0.3679	5.144217	0.000687	6.865827	1.163103	-0.027425
1021	5.1000e-01	-0.3869	5.007092	0.000687	6.865827	1.163103	-0.027425
1022	5.1050e-01	-0.4063	4.849801	0.000788	7.875508	1.334147	-0.031458
1023	5.1100e-01	-0.4279	4.740907	0.000545	5.452275	0.923640	-0.021779
1024	5.1150e-01	-0.4472	4.583617	0.000788	7.875508	1.334147	-0.031458
1025	5.1200e-01	-0.4680	4.385995	0.000989	9.894869	1.676236	-0.039524
1026	5.1250e-01	-0.4876	4.260969	0.000626	6.260019	1.060476	-0.025005
1027	5.1300e-01	-0.5068	4.148042	0.000565	5.654211	0.957849	-0.022585
1028	5.1350e-01	-0.5268	4.051248	0.000485	4.846466	0.821014	-0.019359
1029	5.1400e-01	-0.5473	3.813295	0.001191	11.914230	2.018325	-0.047591
1030	5.1450e-01	-0.5671	3.748765	0.000323	3.230978	0.547342	-0.012906
1031	5.1500e-01	-0.5868	3.535011	0.001070	10.702613	1.813072	-0.042751
1032	5.1550e-01	-0.6074	3.401919	0.000666	6.663891	1.128894	-0.026618
1033	5.1600e-01	-0.6268	3.272860	0.000646	6.461955	1.094685	-0.025812
1034	5.1650e-01	-0.6474	3.115569	0.000788	7.875508	1.334147	-0.031458
1035	5.1700e-01	-0.6676	3.002642	0.000565	5.654211	0.957849	-0.022585
1036	5.1750e-01	-0.6861	2.885682	0.000586	5.856147	0.992058	-0.023392
1037	5.1800e-01	-0.7063	2.728391	0.000788	7.875508	1.334147	-0.031458
1038	5.1850e-01	-0.7271	2.607398	0.000606	6.058083	1.026267	-0.024199
1039	5.1900e-01	-0.7476	2.466240	0.000707	7.067763	1.197312	-0.028232
1040	5.1950e-01	-0.7674	2.292817	0.000868	8.683252	1.470983	-0.034685
1041	5.2000e-01	-0.7875	2.179890	0.000565	5.654211	0.957849	-0.022585
1042	5.2050e-01	-0.8076	2.050831	0.000646	6.461955	1.094685	-0.025812
1043	5.2100e-01	-0.8270	1.913705	0.000687	6.865827	1.163103	-0.027425
1044	5.2150e-01	-0.8470	1.788679	0.000626	6.260019	1.060476	-0.025005
1045	5.2200e-01	-0.8671	1.591057	0.000989	9.894869	1.676236	-0.039524
1046	5.2250e-01	-0.8869	1.449899	0.000707	7.067763	1.197312	-0.028232
1047	5.2300e-01	-0.9068	1.288575	0.000808	8.077444	1.368356	-0.032265
1048	5.2350e-01	-0.9263	1.183714	0.000525	5.250339	0.889431	-0.020972
1049	5.2400e-01	-0.9467	1.018357	0.000828	8.279380	1.402565	-0.033071
1050	5.2450e-01	-0.9678	0.913497	0.000525	5.250339	0.889431	-0.020972
1051	5.2500e-01	-0.9872	0.784438	0.000646	6.461955	1.094685	-0.025812
1052	5.2550e-01	-1.0078	0.623114	0.000808	8.077444	1.368356	-0.032265
1053	5.2600e-01	-1.0270	0.457757	0.000828	8.279380	1.402565	-0.033071
1054	5.2650e-01	-1.0478	0.324664	0.000666	6.663891	1.128894	-0.026618
1055	5.2700e-01	-1.0670	0.207705	0.000586	5.856147	0.992058	-0.023392
1056	5.2750e-01	-1.0894	0.054447	0.000767	7.673572	1.299938	-0.030652
1057	5.2800e-01	-1.1069	-0.114943	0.000848	8.481316	1.436774	-0.033878
1058	5.2850e-01	-1.1274	-0.235936	0.000606	6.058083	1.026267	-0.024199
1059	5.2900e-01	-1.1476	-0.409360	0.000868	8.683252	1.470983	-0.034685
1060	5.2950e-01	-1.1672	-0.530352	0.000606	6.058083	1.026267	-0.024199
1061	5.3000e-01	-1.1870	-0.639246	0.000545	5.452275	0.923640	-0.021779
1062	5.3050e-01	-1.2079	-0.772338	0.000666	6.663891	1.128894	-0.026618
1063	5.3100e-01	-1.2269	-0.921563	0.000747	7.471636	1.265729	-0.029845
1064	5.3150e-01	-1.2478	-1.074821	0.000767	7.673572	1.299938	-0.030652
1065	5.3200e-01	-1.2684	-1.244211	0.000848	8.481316	1.436774	-0.033878
1066	5.3250e-01	-1.2885	-1.349071	0.000525	5.250339	0.889431	-0.020972
1067	5.3300e-01	-1.3075	-1.486197	0.000687	6.865827	1.163103	-0.027425
1068	5.3350e-01	-1.3276	-1.631388	0.000727	7.269700	1.231520	-0.029038
1069	5.3400e-01	-1.3468	-1.748348	0.000586	5.856147	0.992058	-0.023392
1070	5.3450e-01	-1.3676	-1.921771	0.000868	8.683252	1.470983	-0.034685
1071	5.3500e-01	-1.3870	-2.046798	0.000626	6.260019	1.060476	-0.025005
1072	5.3550e-01	-1.4069	-2.224254	0.000889	8.885188	1.505192	-0.035491
1073	5.3600e-01	-1.4275	-2.276684	0.000263	2.625169	0.444716	-0.010486
1074	5.3650e-01	-1.4478	-2.490438	0.001070	10.702613	1.813072	-0.042751
1075	5.3700e-01	-1.4672	-2.655795	0.000828	8.279380	1.402565	-0.033071
1076	5.3750e-01	-1.4868	-2.752590	0.000485	4.846466	0.821014	-0.019359
1077	5.3800e-01	-1.5076	-2.982476	0.001151	11.510358	1.949907	-0.045977
1078	5.3850e-01	-1.5268	-3.055072	0.000363	3.634850	0.615760	-0.014519
1079	5.3900e-01	-1.5481	-3.184131	0.000646	6.461955	1.094685	-0.025812
1080	5.3950e-01	-1.5668	-3.297058	0.000565	5.654211	0.957849	-0.022585
1081	5.4000e-01	-1.5867	-3.462415	0.000828	8.279380	1.402565	-0.033071
1082	5.4050e-01	-1.6078	-3.591474	0.000646	6.461955	1.094685	-0.025812
1083	5.4100e-01	-1.6273	-3.781030	0.000949	9.490997	1.607818	-0.037911
1084	5.4150e-01	-1.6471	-3.865725	0.000424	4.240658	0.718387	-0.016939
1085	5.4200e-01	-1.6670	-3.978652	0.000565	5.654211	0.957849	-0.022585
1086	5.4250e-01	-1.6871	-4.152075	0.000868	8.683252	1.470983	-0.034685
1087	5.4300e-01	-1.7079	-4.321465	0.000848	8.481316	1.436774	-0.033878
1088	5.4350e-01	-1.7271	-4.454557	0.000666	6.663891	1.128894	-0.026618
1089	5.4400e-01	-1.7475	-4.571517	0.000586	5.856147	0.992058	-0.023392
1090	5.4450e-01	-1.7671	-4.769139	0.000989	9.894869	1.676236	-0.039524
1091	5.4500e-01	-1.7876	-4.845768	0.000384	3.836786	0.649969	-0.015326
1092	5.4550e-01	-1.8067	-5.019191	0.000868	8.683252	1.470983	-0.034685
1093	5.4600e-01	-1.8271	-5.156317	0.000687	6.865827	1.163103	-0.027425
1094	5.4650e-01	-1.8482	-5.305541	0.000747	7.471636	1.265729	-0.029845
1095	5.4700e-01	-1.8671	-5.414435	0.000545	5.452275	0.923640	-0.021779
1096	5.4750e-01	-1.8880	-5.551560	0.000687	6.865827	1.163103	-0.027425
1097	5.4800e-01	-1.9074	-5.696752	0.000727	7.269700	1.231520	-0.029038
1098	5.4850e-01	-1.9276	-5.841943	0.000727	7.269700	1.231520	-0.029038
1099	5.4900e-01	-1.9468	-5.999234	0.000788	7.875508	1.334147	-0.031458
1100	5.4950e-01	-1.9675	-6.132326	0.000666	6.663891	1.128894	-0.026618
1101	5.5000e-01	-1.9872	-6.297683	0.000828	8.279380	1.402565	-0.033071
1102	5.5050e-01	-2.0076	-6.374312	0.000384	3.836786	0.649969	-0.015326
1103	5.5100e-01	-2.0274	-6.515471	0.000707	7.067763	1.197312	-0.028232
1104	5.5150e-01	-2.0469	-6.709060	0.000969	9.692933	1.642027	-0.038718
1105	5.5200e-01	-2.0673	-6.813920	0.000525	5.250339	0.889431	-0.020972
1106	5.5250e-01	-2.0879	-6.995410	0.000909	9.087124	1.539401	-0.036298
1107	5.5300e-01	-2.1076	-7.092204	0.000485	4.846466	0.821014	-0.019359
1108	5.5350e-01	-2.1275	-7.193031	0.000505	5.048402	0.855223	-0.020165
1109	5.5400e-01	-2.1468	-7.326124	0.000666	6.663891	1.128894	-0.026618
1110	5.5450e-01	-2.1664	-7.511646	0.000929	9.289061	1.573609	-0.037105
1111	5.5500e-01	-2.1883	-7.632639	0.000606	6.058083	1.026267	-0.024199
1112	5.5550e-01	-2.2074	-7.785897	0.000767	7.673572	1.299938	-0.030652
1113	5.5600e-01	-2.2275	-7.943188	0.000788	7.875508	1.334147	-0.031458
1114	5.5650e-01	-2.2474	-8.076280	0.000666	6.663891	1.128894	-0.026618
1115	5.5700e-01	-2.2675	-8.237604	0.000808	8.077444	1.368356	-0.032265
1116	5.5750e-01	-2.2878	-8.411027	0.000868	8.683252	1.470983	-0.034685
1117	5.5800e-01	-2.3075	-8.487656	0.000384	3.836786	0.649969	-0.015326
1118	5.5850e-01	-2.3277	-8.596550	0.000545	5.452275	0.923640	-0.021779
1119	5.5900e-01	-2.3472	-8.774006	0.000889	8.885188	1.505192	-0.035491
1120	5.5950e-01	-2.3678	-8.923231	0.000747	7.471636	1.265729	-0.029845
1121	5.6000e-01	-2.3878	-9.100687	0.000889	8.885188	1.505192	-0.035491
1122	5.6050e-01	-2.4072	-9.197481	0.000485	4.846466	0.821014	-0.019359
1123	5.6100e-01	-2.4276	-9.322507	0.000626	6.260019	1.060476	-0.025005
1124	5.6150e-01	-2.4477	-9.475765	0.000767	7.673572	1.299938	-0.030652
1125	5.6200e-01	-2.4671	-9.604824	0.000646	6.461955	1.094685	-0.025812
1126	5.6250e-01	-2.4873	-9.733883	0.000646	6.461955	1.094685	-0.025812
1127	5.6300e-01	-2.5087	-9.871009	0.000687	6.865827	1.163103	-0.027425
1128	5.6350e-01	-2.5288	-10.036366	0.000828	8.279380	1.402565	-0.033071
1129	5.6400e-01	-2.5471	-10.173491	0.000687	6.865827	1.163103	-0.027425
1130	5.6450e-01	-2.5663	-10.318683	0.000727	7.269700	1.231520	-0.029038
1131	5.6500e-01	-2.5874	-10.419510	0.000505	5.048402	0.855223	-0.020165
1132	5.6550e-01	-2.6066	-10.584867	0.000828	8.279380	1.402565	-0.033071
1133	5.6600e-01	-2.6276	-10.661496	0.000384	3.836786	0.649969	-0.015326
1134	5.6650e-01	-2.6475	-10.851052	0.000949	9.490997	1.607818	-0.037911
1135	5.6700e-01	-2.6675	-10.972045	0.000606	6.058083	1.026267	-0.024199
1136	5.6750e-01	-2.6875	-11.113203	0.000707	7.067763	1.197312	-0.028232
1137	5.6800e-01	-2.7071	-11.230163	0.000586	5.856147	0.992058	-0.023392
1138	5.6850e-01	-2.7271	-11.391487	0.000808	8.077444	1.368356	-0.032265
1139	5.6900e-01	-2.7470	-11.520546	0.000646	6.461955	1.094685	-0.025812
1140	5.6950e-01	-2.7670	-11.625407	0.000525	5.250339	0.889431	-0.020972
1141	5.7000e-01	-2.7876	-11.762532	0.000687	6.865827	1.163103	-0.027425
1142	5.7050e-01	-2.8067	-11.887558	0.000626	6.260019	1.060476	-0.025005
1143	5.7100e-01	-2.8266	-12.060981	0.000868	8.683252	1.470983	-0.034685
1144	5.7150e-01	-2.8471	-12.230372	0.000848	8.481316	1.436774	-0.033878
1145	5.7200e-01	-2.8663	-12.282802	0.000263	2.625169	0.444716	-0.010486
1146	5.7250e-01	-2.8869	-12.472357	0.000949	9.490997	1.607818	-0.037911
1147	5.7300e-01	-2.9069	-12.585284	0.000565	5.654211	0.957849	-0.022585
1148	5.7350e-01	-2.9273	-12.722410	0.000687	6.865827	1.163103	-0.027425
1149	5.7400e-01	-2.9478	-12.907932	0.000929	9.289061	1.573609	-0.037105
1150	5.7450e-01	-2.9679	-12.956329	0.000242	2.423233	0.410507	-0.009679
1151	5.7500e-01	-2.9881	-13.141852	0.000929	9.289061	1.573609	-0.037105
1152	5.7550e-01	-3.0074	-13.274944	0.000666	6.663891	1.128894	-0.026618
1153	5.7600e-01	-3.0268	-13.456433	0.000909	9.087124	1.539401	-0.036298
1154	5.7650e-01	-3.0463	-13.520963	0.000323	3.230978	0.547342	-0.012906
1155	5.7700e-01	-3.0683	-13.654055	0.000666	6.663891	1.128894	-0.026618
1156	5.7750e-01	-3.0869	-13.827479	0.000868	8.683252	1.470983	-0.034685
1157	5.7800e-01	-3.1074	-13.948472	0.000606	6.058083	1.026267	-0.024199
1158	5.7850e-01	-3.1268	-14.069464	0.000606	6.058083	1.026267	-0.024199
1159	5.7900e-01	-3.1474	-14.238855	0.000848	8.481316	1.436774	-0.033878
1160	5.7950e-01	-3.1672	-14.279186	0.000202	2.019361	0.342089	-0.008066
1161	5.8000e-01	-3.1882	-14.501006	0.001111	11.106485	1.881490	-0.044364
1162	5.8050e-01	-3.2081	-14.630065	0.000646	6.461955	1.094685	-0.025812
1163	5.8100e-01	-3.2272	-14.787356	0.000788	7.875508	1.334147	-0.031458
1164	5.8150e-01	-3.2471	-14.948680	0.000808	8.077444	1.368356	-0.032265
1165	5.8200e-01	-3.2670	-15.041441	0.000464	4.644530	0.786805	-0.018552
1166	5.8250e-01	-3.2865	-15.222931	0.000909	9.087124	1.539401	-0.036298
1167	5.8300e-01	-3.3070	-15.323758	0.000505	5.048402	0.855223	-0.020165
1168	5.8350e-01	-3.3265	-15.472983	0.000747	7.471636	1.265729	-0.029845
1169	5.8400e-01	-3.3471	-15.589943	0.000586	5.856147	0.992058	-0.023392
1170	5.8450e-01	-3.3675	-15.714969	0.000626	6.260019	1.060476	-0.025005
1171	5.8500e-01	-3.3875	-15.799664	0.000424	4.240658	0.718387	-0.016939
1172	5.8550e-01	-3.4074	-15.965021	0.000828	8.279380	1.402565	-0.033071
1173	5.8600e-01	-3.4275	-16.065848	0.000505	5.048402	0.855223	-0.020165
1174	5.8650e-01	-3.4480	-16.190874	0.000626	6.260019	1.060476	-0.025005
1175	5.8700e-01	-3.4677	-16.376397	0.000929	9.289061	1.573609	-0.037105
1176	5.8750e-01	-3.4872	-16.493357	0.000586	5.856147	0.992058	-0.023392
1177	5.8800e-01	-3.5071	-16.606283	0.000565	5.654211	0.957849	-0.022585
1178	5.8850e-01	-3.5276	-16.747442	0.000707	7.067763	1.197312	-0.028232
1179	5.8900e-01	-3.5480	-16.920865	0.000868	8.683252	1.470983	-0.034685
1180	5.8950e-01	-3.5670	-16.985395	0.000323	3.230978	0.547342	-0.012906
1181	5.9000e-01	-3.5871	-17.166884	0.000909	9.087124	1.539401	-0.036298
1182	5.9050e-01	-3.6079	-17.279811	0.000565	5.654211	0.957849	-0.022585
1183	5.9100e-01	-3.6280	-17.416936	0.000687	6.865827	1.163103	-0.027425
1184	5.9150e-01	-3.6469	-17.545995	0.000646	6.461955	1.094685	-0.025812
1185	5.9200e-01	-3.6677	-17.675055	0.000646	6.461955	1.094685	-0.025812
1186	5.9250e-01	-3.6875	-17.812180	0.000687	6.865827	1.163103	-0.027425
1187	5.9300e-01	-3.7080	-17.985603	0.000868	8.683252	1.470983	-0.034685
1188	5.9350e-01	-3.7276	-18.118695	0.000666	6.663891	1.128894	-0.026618
1189	5.9400e-01	-3.7479	-18.191291	0.000363	3.634850	0.615760	-0.014519
1190	5.9450e-01	-3.7675	-18.304218	0.000565	5.654211	0.957849	-0.022585
1191	5.9500e-01	-3.7875	-18.530072	0.001131	11.308422	1.915698	-0.045171
1192	5.9550e-01	-3.8074	-18.598634	0.000343	3.432914	0.581551	-0.013713
1193	5.9600e-01	-3.8273	-18.731726	0.000666	6.663891	1.128894	-0.026618
1194	5.9650e-01	-3.8471	-18.897084	0.000828	8.279380	1.402565	-0.033071
1195	5.9700e-01	-3.8685	-19.014043	0.000586	5.856147	0.992058	-0.023392
1196	5.9750e-01	-3.8883	-19.118904	0.000525	5.250339	0.889431	-0.020972
1197	5.9800e-01	-3.9075	-19.247963	0.000646	6.461955	1.094685	-0.025812
1198	5.9850e-01	-3.9277	-19.393155	0.000727	7.269700	1.231520	-0.029038
1199	5.9900e-01	-3.9472	-19.502048	0.000545	5.452275	0.923640	-0.021779
1200	5.9950e-01	-3.9680	-19.655306	0.000767	7.673572	1.299938	-0.030652
1201	6.0000e-01	-3.9872	-19.756134	0.000505	5.048402	0.855223	-0.020165
1202	6.0050e-01	-4.0070	-19.877126	0.000606	6.058083	1.026267	-0.024199
1203	6.0100e-01	-4.0275	-20.046517	0.000848	8.481316	1.436774	-0.033878
1204	6.0150e-01	-4.0485	-20.167510	0.000606	6.058083	1.026267	-0.024199
1205	6.0200e-01	-4.0672	-20.256238	0.000444	4.442594	0.752596	-0.017746
1206	6.0250e-01	-4.0876	-20.405462	0.000747	7.471636	1.265729	-0.029845
1207	6.0300e-01	-4.1071	-20.562753	0.000788	7.875508	1.334147	-0.031458
1208	6.0350e-01	-4.1280	-20.691812	0.000646	6.461955	1.094685	-0.025812
1209	6.0400e-01	-4.1474	-20.800706	0.000545	5.452275	0.923640	-0.021779
1210	6.0450e-01	-4.1685	-20.909600	0.000545	5.452275	0.923640	-0.021779
1211	6.0500e-01	-4.1871	-21.091089	0.000909	9.087124	1.539401	-0.036298
1212	6.0550e-01	-4.2078	-21.155619	0.000323	3.230978	0.547342	-0.012906
1213	6.0600e-01	-4.2274	-21.296777	0.000707	7.067763	1.197312	-0.028232
1214	6.0650e-01	-4.2484	-21.429869	0.000666	6.663891	1.128894	-0.026618
1215	6.0700e-01	-4.2677	-21.514564	0.000424	4.240658	0.718387	-0.016939
1216	6.0750e-01	-4.2872	-21.651690	0.000687	6.865827	1.163103	-0.027425
1217	6.0800e-01	-4.3082	-21.776716	0.000626	6.260019	1.060476	-0.025005
1218	6.0850e-01	-4.3281	-21.982404	0.001030	10.298741	1.744654	-0.041138
1219	6.0900e-01	-4.3473	-22.063066	0.000404	4.038722	0.684178	-0.016132
1220	6.0950e-01	-4.3678	-22.200191	0.000687	6.865827	1.163103	-0.027425
1221	6.1000e-01	-4.3867	-22.337317	0.000687	6.865827	1.163103	-0.027425
1222	6.1050e-01	-4.4093	-22.397813	0.000303	3.029041	0.513134	-0.012099
1223	6.1100e-01	-4.4282	-22.579303	0.000909	9.087124	1.539401	-0.036298
1224	6.1150e-01	-4.4477	-22.696262	0.000586	5.856147	0.992058	-0.023392
1225	6.1200e-01	-4.4672	-22.829355	0.000666	6.663891	1.128894	-0.026618
1226	6.1250e-01	-4.4880	-22.954381	0.000626	6.260019	1.060476	-0.025005
1227	6.1300e-01	-4.5078	-23.059241	0.000525	5.250339	0.889431	-0.020972
1228	6.1350e-01	-4.5278	-23.192334	0.000666	6.663891	1.128894	-0.026618
1229	6.1400e-01	-4.5481	-23.325426	0.000666	6.663891	1.128894	-0.026618
1230	6.1450e-01	-4.5679	-23.454485	0.000646	6.461955	1.094685	-0.025812
1231	6.1500e-01	-4.5878	-23.619842	0.000828	8.279380	1.402565	-0.033071
1232	6.1550e-01	-4.6072	-23.704537	0.000424	4.240658	0.718387	-0.016939
1233	6.1600e-01	-4.6272	-23.825530	0.000606	6.058083	1.026267	-0.024199
1234	6.1650e-01	-4.6479	-23.914258	0.000444	4.442594	0.752596	-0.017746
1235	6.1700e-01	-4.6671	-24.059450	0.000727	7.269700	1.231520	-0.029038
1236	6.1750e-01	-4.6888	-24.232873	0.000868	8.683252	1.470983	-0.034685
1237	6.1800e-01	-4.7080	-24.353866	0.000606	6.058083	1.026267	-0.024199
1238	6.1850e-01	-4.7291	-24.462760	0.000545	5.452275	0.923640	-0.021779
1239	6.1900e-01	-4.7486	-24.543422	0.000404	4.038722	0.684178	-0.016132
1240	6.1950e-01	-4.7669	-24.692646	0.000747	7.471636	1.265729	-0.029845
1241	6.2000e-01	-4.7877	-24.821705	0.000646	6.461955	1.094685	-0.025812
1242	6.2050e-01	-4.8078	-24.954798	0.000666	6.663891	1.128894	-0.026618
1243	6.2100e-01	-4.8273	-25.027393	0.000363	3.634850	0.615760	-0.014519
1244	6.2150e-01	-4.8478	-25.204850	0.000889	8.885188	1.505192	-0.035491
1245	6.2200e-01	-4.8682	-25.281479	0.000384	3.836786	0.649969	-0.015326
1246	6.2250e-01	-4.8887	-25.406505	0.000626	6.260019	1.060476	-0.025005
1247	6.2300e-01	-4.9088	-25.531531	0.000626	6.260019	1.060476	-0.025005
1248	6.2350e-01	-4.9282	-25.741252	0.001050	10.500677	1.778863	-0.041944
1249	6.2400e-01	-4.9482	-25.733186	-0.000040	-0.403872	-0.068418	0.001613
1250	6.2450e-01	-4.9679	-25.886443	0.000767	7.673572	1.299938	-0.030652
1251	6.2500e-01	-4.9885	-26.059867	0.000868	8.683252	1.470983	-0.034685
1252	6.2550e-01	-5.0083	-26.196992	0.000687	6.865827	1.163103	-0.027425
1253	6.2600e-01	-5.0278	-26.257488	0.000303	3.029041	0.513134	-0.012099
1254	6.2650e-01	-5.0491	-26.394614	0.000687	6.865827	1.163103	-0.027425
1255	6.2700e-01	-5.0687	-26.535772	0.000707	7.067763	1.197312	-0.028232
1256	6.2750e-01	-5.0886	-26.624500	0.000444	4.442594	0.752596	-0.017746
1257	6.2800e-01	-5.1083	-26.785824	0.000808	8.077444	1.368356	-0.032265
1258	6.2850e-01	-5.1283	-26.902784	0.000586	5.856147	0.992058	-0.023392
1259	6.2900e-01	-5.1484	-27.003612	0.000505	5.048402	0.855223	-0.020165
1260	6.2950e-01	-5.1685	-27.116538	0.000565	5.654211	0.957849	-0.022585
1261	6.3000e-01	-5.1884	-27.229465	0.000565	5.654211	0.957849	-0.022585
1262	6.3050e-01	-5.2076	-27.382723	0.000767	7.673572	1.299938	-0.030652
1263	6.3100e-01	-5.2279	-27.495650	0.000565	5.654211	0.957849	-0.022585
1264	6.3150e-01	-5.2485	-27.620676	0.000626	6.260019	1.060476	-0.025005
1265	6.3200e-01	-5.2677	-27.701338	0.000404	4.038722	0.684178	-0.016132
1266	6.3250e-01	-5.2882	-27.882827	0.000909	9.087124	1.539401	-0.036298
1267	6.3300e-01	-5.3074	-27.999787	0.000586	5.856147	0.992058	-0.023392
1268	6.3350e-01	-5.3272	-28.100615	0.000505	5.048402	0.855223	-0.020165
1269	6.3400e-01	-5.3480	-28.237740	0.000687	6.865827	1.163103	-0.027425
1270	6.3450e-01	-5.3678	-28.346634	0.000545	5.452275	0.923640	-0.021779
1271	6.3500e-01	-5.3880	-28.419229	0.000363	3.634850	0.615760	-0.014519
1272	6.3550e-01	-5.4081	-28.568454	0.000747	7.471636	1.265729	-0.029845
1273	6.3600e-01	-5.4282	-28.689447	0.000606	6.058083	1.026267	-0.024199
1274	6.3650e-01	-5.4484	-28.818506	0.000646	6.461955	1.094685	-0.025812
1275	6.3700e-01	-5.4677	-28.947565	0.000646	6.461955	1.094685	-0.025812
1276	6.3750e-01	-5.4884	-29.020161	0.000363	3.634850	0.615760	-0.014519
1277	6.3800e-01	-5.5090	-29.141154	0.000606	6.058083	1.026267	-0.024199
1278	6.3850e-01	-5.5286	-29.266180	0.000626	6.260019	1.060476	-0.025005
1279	6.3900e-01	-5.5485	-29.459769	0.000969	9.692933	1.642027	-0.038718
1280	6.3950e-01	-5.5683	-29.500100	0.000202	2.019361	0.342089	-0.008066
1281	6.4000e-01	-5.5885	-29.613026	0.000565	5.654211	0.957849	-0.022585
1282	6.4050e-01	-5.6086	-29.717887	0.000525	5.250339	0.889431	-0.020972
1283	6.4100e-01	-5.6284	-29.907443	0.000949	9.490997	1.607818	-0.037911
1284	6.4150e-01	-5.6489	-30.012303	0.000525	5.250339	0.889431	-0.020972
1285	6.4200e-01	-5.6687	-30.101031	0.000444	4.442594	0.752596	-0.017746
1286	6.4250e-01	-5.6886	-30.209925	0.000545	5.452275	0.923640	-0.021779
1287	6.4300e-01	-5.7087	-30.326885	0.000586	5.856147	0.992058	-0.023392
1288	6.4350e-01	-5.7288	-30.484176	0.000788	7.875508	1.334147	-0.031458
1289	6.4400e-01	-5.7479	-30.576937	0.000464	4.644530	0.786805	-0.018552
1290	6.4450e-01	-5.7685	-30.742294	0.000828	8.279380	1.402565	-0.033071
1291	6.4500e-01	-5.7877	-30.814890	0.000363	3.634850	0.615760	-0.014519
1292	6.4550e-01	-5.8076	-30.875386	0.000303	3.029041	0.513134	-0.012099
1293	6.4600e-01	-5.8289	-31.044776	0.000848	8.481316	1.436774	-0.033878
1294	6.4650e-01	-5.8488	-31.181902	0.000687	6.865827	1.163103	-0.027425
1295	6.4700e-01	-5.8689	-31.286762	0.000525	5.250339	0.889431	-0.020972
1296	6.4750e-01	-5.8881	-31.419855	0.000666	6.663891	1.128894	-0.026618
1297	6.4800e-01	-5.9080	-31.565046	0.000727	7.269700	1.231520	-0.029038
1298	6.4850e-01	-5.9284	-31.665874	0.000505	5.048402	0.855223	-0.020165
1299	6.4900e-01	-5.9486	-31.738469	0.000363	3.634850	0.615760	-0.014519
1300	6.4950e-01	-5.9687	-31.895760	0.000788	7.875508	1.334147	-0.031458
1301	6.5000e-01	-5.9882	-32.032886	0.000687	6.865827	1.163103	-0.027425
1302	6.5050e-01	-6.0090	-32.198243	0.000828	8.279380	1.402565	-0.033071
1303	6.5100e-01	-6.0276	-32.315203	0.000586	5.856147	0.992058	-0.023392
1304	6.5150e-01	-6.0480	-32.399898	0.000424	4.240658	0.718387	-0.016939
1305	6.5200e-01	-6.0679	-32.452328	0.000263	2.625169	0.444716	-0.010486
1306	6.5250e-01	-6.0883	-32.577354	0.000626	6.260019	1.060476	-0.025005
1307	6.5300e-01	-6.1079	-32.762876	0.000929	9.289061	1.573609	-0.037105
1308	6.5350e-01	-6.1280	-32.835472	0.000363	3.634850	0.615760	-0.014519
1309	6.5400e-01	-6.1485	-32.972598	0.000687	6.865827	1.163103	-0.027425
1310	6.5450e-01	-6.1680	-33.125855	0.000767	7.673572	1.299938	-0.030652
1311	6.5500e-01	-6.1890	-33.206517	0.000404	4.038722	0.684178	-0.016132
1312	6.5550e-01	-6.2086	-33.363808	0.000788	7.875508	1.334147	-0.031458
1313	6.5600e-01	-6.2281	-33.488834	0.000626	6.260019	1.060476	-0.025005
1314	6.5650e-01	-6.2489	-33.565463	0.000384	3.836786	0.649969	-0.015326
1315	6.5700e-01	-6.2690	-33.702588	0.000687	6.865827	1.163103	-0.027425
1316	6.5750e-01	-6.2879	-33.835681	0.000666	6.663891	1.128894	-0.026618
1317	6.5800e-01	-6.3087	-33.952641	0.000586	5.856147	0.992058	-0.023392
1318	6.5850e-01	-6.3285	-34.029269	0.000384	3.836786	0.649969	-0.015326
1319	6.5900e-01	-6.3483	-34.154296	0.000626	6.260019	1.060476	-0.025005
1320	6.5950e-01	-6.3676	-34.291421	0.000687	6.865827	1.163103	-0.027425
1321	6.6000e-01	-6.3880	-34.412414	0.000606	6.058083	1.026267	-0.024199
1322	6.6050e-01	-6.4079	-34.525341	0.000565	5.654211	0.957849	-0.022585
1323	6.6100e-01	-6.4277	-34.630201	0.000525	5.250339	0.889431	-0.020972
1324	6.6150e-01	-6.4481	-34.775393	0.000727	7.269700	1.231520	-0.029038
1325	6.6200e-01	-6.4680	-34.928650	0.000767	7.673572	1.299938	-0.030652
1326	6.6250e-01	-6.4881	-35.017379	0.000444	4.442594	0.752596	-0.017746
1327	6.6300e-01	-6.5079	-35.198868	0.000909	9.087124	1.539401	-0.036298
1328	6.6350e-01	-6.5275	-35.247265	0.000242	2.423233	0.410507	-0.009679
1329	6.6400e-01	-6.5482	-35.372291	0.000626	6.260019	1.060476	-0.025005
1330	6.6450e-01	-6.5687	-35.497317	0.000626	6.260019	1.060476	-0.025005
1331	6.6500e-01	-6.5882	-35.650575	0.000767	7.673572	1.299938	-0.030652
1332	6.6550e-01	-6.6080	-35.767535	0.000586	5.856147	0.992058	-0.023392
1333	6.6600e-01	-6.6282	-35.892561	0.000626	6.260019	1.060476	-0.025005
1334	6.6650e-01	-6.6486	-36.017587	0.000626	6.260019	1.060476	-0.025005
1335	6.6700e-01	-6.6682	-36.263606	0.001232	12.318102	2.086743	-0.049204
1336	6.6750e-01	-6.6883	-36.303937	0.000202	2.019361	0.342089	-0.008066
1337	6.6800e-01	-6.7078	-36.416864	0.000565	5.654211	0.957849	-0.022585
1338	6.6850e-01	-6.7286	-36.517691	0.000505	5.048402	0.855223	-0.020165
1339	6.6900e-01	-6.7484	-36.642717	0.000626	6.260019	1.060476	-0.025005
1340	6.6950e-01	-6.7683	-36.759677	0.000586	5.856147	0.992058	-0.023392
1341	6.7000e-01	-6.7884	-36.904869	0.000727	7.269700	1.231520	-0.029038
1342	6.7050e-01	-6.8081	-36.981498	0.000384	3.836786	0.649969	-0.015326
1343	6.7100e-01	-6.8287	-37.074259	0.000464	4.644530	0.786805	-0.018552
1344	6.7150e-01	-6.8482	-37.288013	0.001070	10.702613	1.813072	-0.042751
1345	6.7200e-01	-6.8684	-37.433205	0.000727	7.269700	1.231520	-0.029038
1346	6.7250e-01	-6.8880	-37.517900	0.000424	4.240658	0.718387	-0.016939
1347	6.7300e-01	-6.9086	-37.638893	0.000606	6.058083	1.026267	-0.024199
1348	6.7350e-01	-6.9297	-37.763919	0.000626	6.260019	1.060476	-0.025005
1349	6.7400e-01	-6.9489	-37.892978	0.000646	6.461955	1.094685	-0.025812
1350	6.7450e-01	-6.9691	-37.981706	0.000444	4.442594	0.752596	-0.017746
1351	6.7500e-01	-6.9880	-38.126898	0.000727	7.269700	1.231520	-0.029038
1352	6.7550e-01	-7.0084	-38.276122	0.000747	7.471636	1.265729	-0.029845
1353	6.7600e-01	-7.0284	-38.389049	0.000565	5.654211	0.957849	-0.022585
1354	6.7650e-01	-7.0490	-38.473744	0.000424	4.240658	0.718387	-0.016939
1355	6.7700e-01	-7.0689	-38.542307	0.000343	3.432914	0.581551	-0.013713
1356	6.7750e-01	-7.0887	-38.760094	0.001090	10.904549	1.847281	-0.043557
1357	6.7800e-01	-7.1088	-38.901253	0.000707	7.067763	1.197312	-0.028232
1358	6.7850e-01	-7.1272	-39.006113	0.000525	5.250339	0.889431	-0.020972
1359	6.7900e-01	-7.1491	-39.131139	0.000626	6.260019	1.060476	-0.025005
1360	6.7950e-01	-7.1687	-39.272298	0.000707	7.067763	1.197312	-0.028232
1361	6.8000e-01	-7.1882	-39.352960	0.000404	4.038722	0.684178	-0.016132
1362	6.8050e-01	-7.2089	-39.558648	0.001030	10.298741	1.744654	-0.041138
1363	6.8100e-01	-7.2285	-39.607045	0.000242	2.423233	0.410507	-0.009679
1364	6.8150e-01	-7.2486	-39.780468	0.000868	8.683252	1.470983	-0.034685
1365	6.8200e-01	-7.2688	-39.941792	0.000808	8.077444	1.368356	-0.032265
1366	6.8250e-01	-7.2883	-40.099083	0.000788	7.875508	1.334147	-0.031458
1367	6.8300e-01	-7.3090	-40.199910	0.000505	5.048402	0.855223	-0.020165
1368	6.8350e-01	-7.3298	-40.300738	0.000505	5.048402	0.855223	-0.020165
1369	6.8400e-01	-7.3484	-40.441896	0.000707	7.067763	1.197312	-0.028232
1370	6.8450e-01	-7.3695	-40.526591	0.000424	4.240658	0.718387	-0.016939
1371	6.8500e-01	-7.3893	-40.679849	0.000767	7.673572	1.299938	-0.030652
1372	6.8550e-01	-7.4085	-40.816974	0.000687	6.865827	1.163103	-0.027425
1373	6.8600e-01	-7.4288	-40.937967	0.000606	6.058083	1.026267	-0.024199
1374	6.8650e-01	-7.4494	-41.014596	0.000384	3.836786	0.649969	-0.015326
1375	6.8700e-01	-7.4689	-41.139622	0.000626	6.260019	1.060476	-0.025005
1376	6.8750e-01	-7.4891	-41.313046	0.000868	8.683252	1.470983	-0.034685
1377	6.8800e-01	-7.5086	-41.482436	0.000848	8.481316	1.436774	-0.033878
1378	6.8850e-01	-7.5282	-41.579230	0.000485	4.846466	0.821014	-0.019359
1379	6.8900e-01	-7.5492	-41.655859	0.000384	3.836786	0.649969	-0.015326
1380	6.8950e-01	-7.5697	-41.809117	0.000767	7.673572	1.299938	-0.030652
1381	6.9000e-01	-7.5886	-41.950275	0.000707	7.067763	1.197312	-0.028232
1382	6.9050e-01	-7.6087	-41.998672	0.000242	2.423233	0.410507	-0.009679
1383	6.9100e-01	-7.6273	-42.168062	0.000848	8.481316	1.436774	-0.033878
1384	6.9150e-01	-7.6496	-42.301155	0.000666	6.663891	1.128894	-0.026618
1385	6.9200e-01	-7.6673	-42.490710	0.000949	9.490997	1.607818	-0.037911
1386	6.9250e-01	-7.6887	-42.607670	0.000586	5.856147	0.992058	-0.023392
1387	6.9300e-01	-7.7082	-42.692365	0.000424	4.240658	0.718387	-0.016939
1388	6.9350e-01	-7.7283	-42.837557	0.000727	7.269700	1.231520	-0.029038
1389	6.9400e-01	-7.7479	-43.002914	0.000828	8.279380	1.402565	-0.033071
1390	6.9450e-01	-7.7680	-43.140039	0.000687	6.865827	1.163103	-0.027425
1391	6.9500e-01	-7.7885	-43.261032	0.000606	6.058083	1.026267	-0.024199
1392	6.9550e-01	-7.8083	-43.382025	0.000606	6.058083	1.026267	-0.024199
1393	6.9600e-01	-7.8278	-43.555448	0.000868	8.683252	1.470983	-0.034685
1394	6.9650e-01	-7.8480	-43.636110	0.000404	4.038722	0.684178	-0.016132
1395	6.9700e-01	-7.8687	-43.740971	0.000525	5.250339	0.889431	-0.020972
1396	6.9750e-01	-7.8886	-43.926493	0.000929	9.289061	1.573609	-0.037105
1397	6.9800e-01	-7.9084	-44.011188	0.000424	4.240658	0.718387	-0.016939
1398	6.9850e-01	-7.9292	-44.180579	0.000848	8.481316	1.436774	-0.033878
1399	6.9900e-01	-7.9475	-44.277373	0.000485	4.846466	0.821014	-0.019359
1400	6.9950e-01	-7.9682	-44.402399	0.000626	6.260019	1.060476	-0.025005
1401	7.0000e-01	-7.9884	-44.579855	0.000889	8.885188	1.505192	-0.035491
1402	7.0050e-01	-8.0091	-44.733113	0.000767	7.673572	1.299938	-0.030652
1403	7.0100e-01	-8.0286	-44.801676	0.000343	3.432914	0.581551	-0.013713
1404	7.0150e-01	-8.0488	-44.914603	0.000565	5.654211	0.957849	-0.022585
1405	7.0200e-01	-8.0686	-45.071893	0.000788	7.875508	1.334147	-0.031458
1406	7.0250e-01	-8.0885	-45.225151	0.000767	7.673572	1.299938	-0.030652
1407	7.0300e-01	-8.1098	-45.338078	0.000565	5.654211	0.957849	-0.022585
1408	7.0350e-01	-8.1287	-45.434872	0.000485	4.846466	0.821014	-0.019359
1409	7.0400e-01	-8.1486	-45.592163	0.000788	7.875508	1.334147	-0.031458
1410	7.0450e-01	-8.1684	-45.705090	0.000565	5.654211	0.957849	-0.022585
1411	7.0500e-01	-8.1892	-45.870447	0.000828	8.279380	1.402565	-0.033071
1412	7.0550e-01	-8.2081	-45.999506	0.000646	6.461955	1.094685	-0.025812
1413	7.0600e-01	-8.2288	-46.140665	0.000707	7.067763	1.197312	-0.028232
1414	7.0650e-01	-8.2484	-46.237459	0.000485	4.846466	0.821014	-0.019359
1415	7.0700e-01	-8.2685	-46.382650	0.000727	7.269700	1.231520	-0.029038
1416	7.0750e-01	-8.2880	-46.523809	0.000707	7.067763	1.197312	-0.028232
1417	7.0800e-01	-8.3076	-46.689166	0.000828	8.279380	1.402565	-0.033071
1418	7.0850e-01	-8.3289	-46.741596	0.000263	2.625169	0.444716	-0.010486
1419	7.0900e-01	-8.3485	-46.943251	0.001010	10.096805	1.710445	-0.040331
1420	7.0950e-01	-8.3689	-47.064244	0.000606	6.058083	1.026267	-0.024199
1421	7.1000e-01	-8.3884	-47.209436	0.000727	7.269700	1.231520	-0.029038
1422	7.1050e-01	-8.4083	-47.322362	0.000565	5.654211	0.957849	-0.022585
1423	7.1100e-01	-8.4290	-47.407058	0.000424	4.240658	0.718387	-0.016939
1424	7.1150e-01	-8.4486	-47.620812	0.001070	10.702613	1.813072	-0.042751
1425	7.1200e-01	-8.4687	-47.693408	0.000363	3.634850	0.615760	-0.014519
1426	7.1250e-01	-8.4882	-47.858765	0.000828	8.279380	1.402565	-0.033071
1427	7.1300e-01	-8.5087	-47.995890	0.000687	6.865827	1.163103	-0.027425
1428	7.1350e-01	-8.5291	-48.137048	0.000707	7.067763	1.197312	-0.028232
1429	7.1400e-01	-8.5487	-48.326604	0.000949	9.490997	1.607818	-0.037911
1430	7.1450e-01	-8.5694	-48.370968	0.000222	2.221297	0.376298	-0.008873
1431	7.1500e-01	-8.5889	-48.540358	0.000848	8.481316	1.436774	-0.033878
1432	7.1550e-01	-8.6082	-48.721848	0.000909	9.087124	1.539401	-0.036298
1433	7.1600e-01	-8.6283	-48.786377	0.000323	3.230978	0.547342	-0.012906
1434	7.1650e-01	-8.6481	-48.992065	0.001030	10.298741	1.744654	-0.041138
1435	7.1700e-01	-8.6683	-49.036429	0.000222	2.221297	0.376298	-0.008873
1436	7.1750e-01	-8.6887	-49.189687	0.000767	7.673572	1.299938	-0.030652
1437	7.1800e-01	-8.7086	-49.302614	0.000565	5.654211	0.957849	-0.022585
1438	7.1850e-01	-8.7293	-49.451839	0.000747	7.471636	1.265729	-0.029845
1439	7.1900e-01	-8.7489	-49.629295	0.000889	8.885188	1.505192	-0.035491
1440	7.1950e-01	-8.7687	-49.750288	0.000606	6.058083	1.026267	-0.024199
1441	7.2000e-01	-8.7891	-49.899512	0.000747	7.471636	1.265729	-0.029845
1442	7.2050e-01	-8.8093	-50.036638	0.000687	6.865827	1.163103	-0.027425
1443	7.2100e-01	-8.8306	-50.157631	0.000606	6.058083	1.026267	-0.024199
1444	7.2150e-01	-8.8486	-50.246359	0.000444	4.442594	0.752596	-0.017746
1445	7.2200e-01	-8.8682	-50.403650	0.000788	7.875508	1.334147	-0.031458
1446	7.2250e-01	-8.8886	-50.544808	0.000707	7.067763	1.197312	-0.028232
1447	7.2300e-01	-8.9082	-50.661768	0.000586	5.856147	0.992058	-0.023392
1448	7.2350e-01	-8.9289	-50.766629	0.000525	5.250339	0.889431	-0.020972
1449	7.2400e-01	-8.9484	-50.931986	0.000828	8.279380	1.402565	-0.033071
1450	7.2450e-01	-8.9680	-51.073144	0.000707	7.067763	1.197312	-0.028232
1451	7.2500e-01	-8.9887	-51.186071	0.000565	5.654211	0.957849	-0.022585
1452	7.2550e-01	-9.0089	-51.387726	0.001010	10.096805	1.710445	-0.040331
1453	7.2600e-01	-9.0296	-51.500653	0.000565	5.654211	0.957849	-0.022585
1454	7.2650e-01	-9.0491	-51.633745	0.000666	6.663891	1.128894	-0.026618
1455	7.2700e-01	-9.0687	-51.774903	0.000707	7.067763	1.197312	-0.028232
1456	7.2750e-01	-9.0888	-51.871698	0.000485	4.846466	0.821014	-0.019359
1457	7.2800e-01	-9.1096	-52.033022	0.000808	8.077444	1.368356	-0.032265
1458	7.2850e-01	-9.1291	-52.170147	0.000687	6.865827	1.163103	-0.027425
1459	7.2900e-01	-9.1486	-52.319372	0.000747	7.471636	1.265729	-0.029845
1460	7.2950e-01	-9.1688	-52.400034	0.000404	4.038722	0.684178	-0.016132
1461	7.3000e-01	-9.1889	-52.553291	0.000767	7.673572	1.299938	-0.030652
1462	7.3050e-01	-9.2086	-52.710582	0.000788	7.875508	1.334147	-0.031458
1463	7.3100e-01	-9.2292	-52.835608	0.000626	6.260019	1.060476	-0.025005
1464	7.3150e-01	-9.2475	-53.009031	0.000868	8.683252	1.470983	-0.034685
1465	7.3200e-01	-9.2689	-53.134058	0.000626	6.260019	1.060476	-0.025005
1466	7.3250e-01	-9.2890	-53.275216	0.000707	7.067763	1.197312	-0.028232
1467	7.3300e-01	-9.3098	-53.444606	0.000848	8.481316	1.436774	-0.033878
1468	7.3350e-01	-9.3293	-53.565599	0.000606	6.058083	1.026267	-0.024199
1469	7.3400e-01	-9.3488	-53.666427	0.000505	5.048402	0.855223	-0.020165
1470	7.3450e-01	-9.3696	-53.864048	0.000989	9.894869	1.676236	-0.039524
1471	7.3500e-01	-9.3891	-53.968909	0.000525	5.250339	0.889431	-0.020972
1472	7.3550e-01	-9.4086	-54.138299	0.000848	8.481316	1.436774	-0.033878
1473	7.3600e-01	-9.4294	-54.279458	0.000707	7.067763	1.197312	-0.028232
1474	7.3650e-01	-9.4489	-54.372219	0.000464	4.644530	0.786805	-0.018552
1475	7.3700e-01	-9.4686	-54.501278	0.000646	6.461955	1.094685	-0.025812
1476	7.3750e-01	-9.4892	-54.622271	0.000606	6.058083	1.026267	-0.024199
1477	7.3800e-01	-9.5094	-54.811827	0.000949	9.490997	1.607818	-0.037911
1478	7.3850e-01	-9.5283	-54.924753	0.000565	5.654211	0.957849	-0.022585
1479	7.3900e-01	-9.5490	-55.057846	0.000666	6.663891	1.128894	-0.026618
1480	7.3950e-01	-9.5686	-55.271600	0.001070	10.702613	1.813072	-0.042751
1481	7.4000e-01	-9.5887	-55.364361	0.000464	4.644530	0.786805	-0.018552
1482	7.4050e-01	-9.6076	-55.489387	0.000626	6.260019	1.060476	-0.025005
1483	7.4100e-01	-9.6284	-55.638612	0.000747	7.471636	1.265729	-0.029845
1484	7.4150e-01	-9.6485	-55.735406	0.000485	4.846466	0.821014	-0.019359
1485	7.4200e-01	-9.6680	-55.888664	0.000767	7.673572	1.299938	-0.030652
1486	7.4250e-01	-9.6894	-56.062087	0.000868	8.683252	1.470983	-0.034685
1487	7.4300e-01	-9.7083	-56.146782	0.000424	4.240658	0.718387	-0.016939
1488	7.4350e-01	-9.7291	-56.324239	0.000889	8.885188	1.505192	-0.035491
1489	7.4400e-01	-9.7489	-56.501695	0.000889	8.885188	1.505192	-0.035491
1490	7.4450e-01	-9.7681	-56.566224	0.000323	3.230978	0.547342	-0.012906
1491	7.4500e-01	-9.7883	-56.735615	0.000848	8.481316	1.436774	-0.033878
1492	7.4550e-01	-9.8090	-56.909038	0.000868	8.683252	1.470983	-0.034685
1493	7.4600e-01	-9.8286	-57.001799	0.000464	4.644530	0.786805	-0.018552
1494	7.4650e-01	-9.8490	-57.195388	0.000969	9.692933	1.642027	-0.038718
1495	7.4700e-01	-9.8689	-57.336546	0.000707	7.067763	1.197312	-0.028232
1496	7.4750e-01	-9.8887	-57.465605	0.000646	6.461955	1.094685	-0.025812
1497	7.4800e-01	-9.9097	-57.630962	0.000828	8.279380	1.402565	-0.033071
1498	7.4850e-01	-9.9287	-57.751955	0.000606	6.058083	1.026267	-0.024199
1499	7.4900e-01	-9.9488	-57.913279	0.000808	8.077444	1.368356	-0.032265
1500	7.4950e-01	-9.9689	-58.090736	0.000889	8.885188	1.505192	-0.035491
1501	7.5000e-01	-9.9892	-58.187530	0.000485	4.846466	0.821014	-0.019359
1502	7.5050e-01	-9.9857	-58.147199	0.000202	2.019361	0.342089	0.008066
1503	7.5100e-01	-9.9699	-58.078636	0.000343	3.432914	0.581551	0.013713
1504	7.5150e-01	-9.9519	-58.046372	0.000162	1.615489	0.273671	0.006453
1505	7.5200e-01	-9.9317	-58.090736	-0.000222	-2.221297	-0.376298	-0.008873
1506	7.5250e-01	-9.9122	-58.082670	0.000040	0.403872	0.068418	0.001613
1507	7.5300e-01	-9.8920	-58.054438	0.000141	1.413553	0.239462	0.005646
1508	7.5350e-01	-9.8725	-57.993941	0.000303	3.029041	0.513134	0.012099
1509	7.5400e-01	-9.8524	-57.953610	0.000202	2.019361	0.342089	0.008066
1510	7.5450e-01	-9.8316	-57.969743	-0.000081	-0.807744	-0.136836	-0.003226
1511	7.5500e-01	-9.8115	-57.925379	0.000222	2.221297	0.376298	0.008873
1512	7.5550e-01	-9.7913	-57.921346	0.000020	0.201936	0.034209	0.000807
1513	7.5600e-01	-9.7718	-57.864882	0.000283	2.827105	0.478925	0.011293
1514	7.5650e-01	-9.7529	-57.784220	0.000404	4.038722	0.684178	0.016132
1515	7.5700e-01	-9.7321	-57.796320	-0.000061	-0.605808	-0.102627	-0.002420
1516	7.5750e-01	-9.7111	-57.719691	0.000384	3.836786	0.649969	0.015326
1517	7.5800e-01	-9.6925	-57.695492	0.000121	1.211617	0.205253	0.004840
1518	7.5850e-01	-9.6717	-57.647095	0.000242	2.423233	0.410507	0.009679
1519	7.5900e-01	-9.6519	-57.574499	0.000363	3.634850	0.615760	0.014519
1520	7.5950e-01	-9.6320	-57.518036	0.000283	2.827105	0.478925	0.011293
1521	7.6000e-01	-9.6113	-57.449473	0.000343	3.432914	0.581551	0.013713
1522	7.6050e-01	-9.5918	-57.401076	0.000242	2.423233	0.410507	0.009679
1523	7.6100e-01	-9.5707	-57.348646	0.000263	2.625169	0.444716	0.010486
1524	7.6150e-01	-9.5521	-57.336546	0.000061	0.605808	0.102627	0.002420
1525	7.6200e-01	-9.5313	-57.292182	0.000222	2.221297	0.376298	0.008873
1526	7.6250e-01	-9.5124	-57.231686	0.000303	3.029041	0.513134	0.012099
1527	7.6300e-01	-9.4917	-57.231686	0.000000	0.000000	0.000000	0.000000
1528	7.6350e-01	-9.4715	-57.159090	0.000363	3.634850	0.615760	0.014519
1529	7.6400e-01	-9.4508	-57.066329	0.000464	4.644530	0.786805	0.018552
1530	7.6450e-01	-9.4324	-57.070362	-0.000020	-0.201936	-0.034209	-0.000807
1531	7.6500e-01	-9.4129	-56.973567	0.000485	4.846466	0.821014	0.019359
1532	7.6550e-01	-9.3922	-56.945336	0.000141	1.413553	0.239462	0.005646
1533	7.6600e-01	-9.3720	-56.856608	0.000444	4.442594	0.752596	0.017746
1534	7.6650e-01	-9.3519	-56.848541	0.000040	0.403872	0.068418	0.001613
1535	7.6700e-01	-9.3330	-56.719482	0.000646	6.461955	1.094685	0.025812
1536	7.6750e-01	-9.3122	-56.626721	0.000464	4.644530	0.786805	0.018552
1537	7.6800e-01	-9.2927	-56.610589	0.000081	0.807744	0.136836	0.003226
1538	7.6850e-01	-9.2725	-56.497662	0.000565	5.654211	0.957849	0.022585
1539	7.6900e-01	-9.2521	-56.525893	-0.000141	-1.413553	-0.239462	-0.005646
1540	7.6950e-01	-9.2310	-56.429099	0.000485	4.846466	0.821014	0.019359
1541	7.7000e-01	-9.2121	-56.360536	0.000343	3.432914	0.581551	0.013713
1542	7.7050e-01	-9.1914	-56.279874	0.000404	4.038722	0.684178	0.016132
1543	7.7100e-01	-9.1724	-56.231477	0.000242	2.423233	0.410507	0.009679
1544	7.7150e-01	-9.1517	-56.150815	0.000404	4.038722	0.684178	0.016132
1545	7.7200e-01	-9.1319	-56.118551	0.000162	1.615489	0.273671	0.006453
1546	7.7250e-01	-9.1126	-56.102418	0.000081	0.807744	0.136836	0.003226
1547	7.7300e-01	-9.0922	-55.977392	0.000626	6.260019	1.060476	0.025005
1548	7.7350e-01	-9.0717	-55.941094	0.000182	1.817425	0.307880	0.007260
1549	7.7400e-01	-9.0522	-55.860432	0.000404	4.038722	0.684178	0.016132
1550	7.7450e-01	-9.0327	-55.808002	0.000263	2.625169	0.444716	0.010486
1551	7.7500e-01	-9.0125	-55.727340	0.000404	4.038722	0.684178	0.016132
1552	7.7550e-01	-8.9913	-55.618446	0.000545	5.452275	0.923640	0.021779
1553	7.7600e-01	-8.9719	-55.618446	0.000000	0.000000	0.000000	0.000000
1554	7.7650e-01	-8.9521	-55.505520	0.000565	5.654211	0.957849	0.022585
1555	7.7700e-01	-8.9326	-55.501486	0.000020	0.201936	0.034209	0.000807
1556	7.7750e-01	-8.9124	-55.336129	0.000828	8.279380	1.402565	0.033071
1557	7.7800e-01	-8.8917	-55.364361	-0.000141	-1.413553	-0.239462	-0.005646
1558	7.7850e-01	-8.8721	-55.235302	0.000646	6.461955	1.094685	0.025812
1559	7.7900e-01	-8.8520	-55.170772	0.000323	3.230978	0.547342	0.012906
1560	7.7950e-01	-8.8313	-55.110276	0.000303	3.029041	0.513134	0.012099
1561	7.8000e-01	-8.8117	-55.082044	0.000141	1.413553	0.239462	0.005646
1562	7.8050e-01	-8.7919	-55.029614	0.000263	2.625169	0.444716	0.010486
1563	7.8100e-01	-8.7727	-54.872323	0.000788	7.875508	1.334147	0.031458
1564	7.8150e-01	-8.7519	-54.856191	0.000081	0.807744	0.136836	0.003226
1565	7.8200e-01	-8.7318	-54.755363	0.000505	5.048402	0.855223	0.020165
1566	7.8250e-01	-8.7128	-54.719065	0.000182	1.817425	0.307880	0.007260
1567	7.8300e-01	-8.6909	-54.638403	0.000404	4.038722	0.684178	0.016132
1568	7.8350e-01	-8.6723	-54.549675	0.000444	4.442594	0.752596	0.017746
1569	7.8400e-01	-8.6512	-54.444815	0.000525	5.250339	0.889431	0.020972
1570	7.8450e-01	-8.6317	-54.412550	0.000162	1.615489	0.273671	0.006453
1571	7.8500e-01	-8.6115	-54.343987	0.000343	3.432914	0.581551	0.013713
1572	7.8550e-01	-8.5917	-54.239127	0.000525	5.250339	0.889431	0.020972
1573	7.8600e-01	-8.5712	-54.186696	0.000263	2.625169	0.444716	0.010486
1574	7.8650e-01	-8.5523	-54.102001	0.000424	4.240658	0.718387	0.016939
1575	7.8700e-01	-8.5310	-54.081836	0.000101	1.009680	0.171045	0.004033
1576	7.8750e-01	-8.5114	-54.009240	0.000363	3.634850	0.615760	0.014519
1577	7.8800e-01	-8.4913	-53.880181	0.000646	6.461955	1.094685	0.025812
1578	7.8850e-01	-8.4724	-53.855982	0.000121	1.211617	0.205253	0.004840
1579	7.8900e-01	-8.4516	-53.783386	0.000363	3.634850	0.615760	0.014519
1580	7.8950e-01	-8.4315	-53.706758	0.000384	3.836786	0.649969	0.015326
1581	7.9000e-01	-8.4119	-53.626096	0.000404	4.038722	0.684178	0.016132
1582	7.9050e-01	-8.3915	-53.549467	0.000384	3.836786	0.649969	0.015326
1583	7.9100e-01	-8.3723	-53.525268	0.000121	1.211617	0.205253	0.004840
1584	7.9150e-01	-8.3515	-53.359911	0.000828	8.279380	1.402565	0.033071
1585	7.9200e-01	-8.3321	-53.327646	0.000162	1.615489	0.273671	0.006453
1586	7.9250e-01	-8.3118	-53.230852	0.000485	4.846466	0.821014	0.019359
1587	7.9300e-01	-8.2917	-53.158256	0.000363	3.634850	0.615760	0.014519
1588	7.9350e-01	-8.2723	-53.121958	0.000182	1.817425	0.307880	0.007260
1589	7.9400e-01	-8.2522	-53.085660	0.000182	1.817425	0.307880	0.007260
1590	7.9450e-01	-8.2316	-52.928370	0.000788	7.875508	1.334147	0.031458
1591	7.9500e-01	-8.2124	-52.859807	0.000343	3.432914	0.581551	0.013713
1592	7.9550e-01	-8.1922	-52.775112	0.000424	4.240658	0.718387	0.016939
1593	7.9600e-01	-8.1715	-52.714615	0.000303	3.029041	0.513134	0.012099
1594	7.9650e-01	-8.1532	-52.650086	0.000323	3.230978	0.547342	0.012906
1595	7.9700e-01	-8.1321	-52.585556	0.000323	3.230978	0.547342	0.012906
1596	7.9750e-01	-8.1110	-52.508927	0.000384	3.836786	0.649969	0.015326
1597	7.9800e-01	-8.0927	-52.460530	0.000242	2.423233	0.410507	0.009679
1598	7.9850e-01	-8.0714	-52.363736	0.000485	4.846466	0.821014	0.019359
1599	7.9900e-01	-8.0524	-52.307272	0.000283	2.827105	0.478925	0.011293
1600	7.9950e-01	-8.0323	-52.194346	0.000565	5.654211	0.957849	0.022585
1601	8.0000e-01	-8.0109	-52.149981	0.000222	2.221297	0.376298	0.008873
1602	8.0050e-01	-7.9923	-52.065286	0.000424	4.240658	0.718387	0.016939
1603	8.0100e-01	-7.9725	-51.936227	0.000646	6.461955	1.094685	0.025812
1604	8.0150e-01	-7.9523	-51.903962	0.000162	1.615489	0.273671	0.006453
1605	8.0200e-01	-7.9316	-51.827334	0.000384	3.836786	0.649969	0.015326
1606	8.0250e-01	-7.9121	-51.722473	0.000525	5.250339	0.889431	0.020972
1607	8.0300e-01	-7.8916	-51.661977	0.000303	3.029041	0.513134	0.012099
1608	8.0350e-01	-7.8724	-51.508719	0.000767	7.673572	1.299938	0.030652
1609	8.0400e-01	-7.8524	-51.452255	0.000283	2.827105	0.478925	0.011293
1610	8.0450e-01	-7.8321	-51.399825	0.000263	2.625169	0.444716	0.010486
1611	8.0500e-01	-7.8126	-51.335296	0.000323	3.230978	0.547342	0.012906
1612	8.0550e-01	-7.7918	-51.254634	0.000404	4.038722	0.684178	0.016132
1613	8.0600e-01	-7.7714	-51.113475	0.000707	7.067763	1.197312	0.028232
1614	8.0650e-01	-7.7515	-51.097343	0.000081	0.807744	0.136836	0.003226
1615	8.0700e-01	-7.7320	-50.815026	0.001414	14.135527	2.394623	0.056463
1616	8.0750e-01	-7.7125	-50.968284	-0.000767	-7.673572	-1.299938	-0.030652
1617	8.0800e-01	-7.6917	-50.823092	0.000727	7.269700	1.231520	0.029038
1618	8.0850e-01	-7.6722	-50.766629	0.000283	2.827105	0.478925	0.011293
1619	8.0900e-01	-7.6510	-50.649669	0.000586	5.856147	0.992058	0.023392
1620	8.0950e-01	-7.6316	-50.629503	0.000101	1.009680	0.171045	0.004033
1621	8.1000e-01	-7.6118	-50.496411	0.000666	6.663891	1.128894	0.026618
1622	8.1050e-01	-7.5922	-50.439948	0.000283	2.827105	0.478925	0.011293
1623	8.1100e-01	-7.5709	-50.347186	0.000464	4.644530	0.786805	0.018552
1624	8.1150e-01	-7.5526	-50.278624	0.000343	3.432914	0.581551	0.013713
1625	8.1200e-01	-7.5318	-50.201995	0.000384	3.836786	0.649969	0.015326
1626	8.1250e-01	-7.5123	-50.085035	0.000586	5.856147	0.992058	0.023392
1627	8.1300e-01	-7.4934	-50.036638	0.000242	2.423233	0.410507	0.009679
1628	8.1350e-01	-7.4726	-49.968075	0.000343	3.432914	0.581551	0.013713
1629	8.1400e-01	-7.4525	-49.887413	0.000404	4.038722	0.684178	0.016132
1630	8.1450e-01	-7.4329	-49.810784	0.000384	3.836786	0.649969	0.015326
1631	8.1500e-01	-7.4128	-49.657527	0.000767	7.673572	1.299938	0.030652
1632	8.1550e-01	-7.3923	-49.609129	0.000242	2.423233	0.410507	0.009679
1633	8.1600e-01	-7.3725	-49.572831	0.000182	1.817425	0.307880	0.007260
1634	8.1650e-01	-7.3524	-49.399408	0.000868	8.683252	1.470983	0.034685
1635	8.1700e-01	-7.3325	-49.375210	0.000121	1.211617	0.205253	0.004840
1636	8.1750e-01	-7.3127	-49.254217	0.000606	6.058083	1.026267	0.024199
1637	8.1800e-01	-7.2919	-49.258250	-0.000020	-0.201936	-0.034209	-0.000807
1638	8.1850e-01	-7.2733	-49.068694	0.000949	9.490997	1.607818	0.037911
1639	8.1900e-01	-7.2523	-49.040462	0.000141	1.413553	0.239462	0.005646
1640	8.1950e-01	-7.2324	-48.947701	0.000464	4.644530	0.786805	0.018552
1641	8.2000e-01	-7.2132	-48.850907	0.000485	4.846466	0.821014	0.019359
1642	8.2050e-01	-7.1925	-48.782344	0.000343	3.432914	0.581551	0.013713
1643	8.2100e-01	-7.1717	-48.653285	0.000646	6.461955	1.094685	0.025812
1644	8.2150e-01	-7.1522	-48.552458	0.000505	5.048402	0.855223	0.020165
1645	8.2200e-01	-7.1320	-48.528259	0.000121	1.211617	0.205253	0.004840
1646	8.2250e-01	-7.1119	-48.463729	0.000323	3.230978	0.547342	0.012906
1647	8.2300e-01	-7.0918	-48.330637	0.000666	6.663891	1.128894	0.026618
1648	8.2350e-01	-7.0728	-48.233843	0.000485	4.846466	0.821014	0.019359
1649	8.2400e-01	-7.0527	-48.133015	0.000505	5.048402	0.855223	0.020165
1650	8.2450e-01	-7.0325	-48.024122	0.000545	5.452275	0.923640	0.021779
1651	8.2500e-01	-7.0124	-47.999923	0.000121	1.211617	0.205253	0.004840
1652	8.2550e-01	-6.9923	-47.895062	0.000525	5.250339	0.889431	0.020972
1653	8.2600e-01	-6.9727	-47.830533	0.000323	3.230978	0.547342	0.012906
1654	8.2650e-01	-6.9526	-47.737772	0.000464	4.644530	0.786805	0.018552
1655	8.2700e-01	-6.9324	-47.681308	0.000283	2.827105	0.478925	0.011293
1656	8.2750e-01	-6.9129	-47.548216	0.000666	6.663891	1.128894	0.026618
1657	8.2800e-01	-6.8928	-47.528050	0.000101	1.009680	0.171045	0.004033
1658	8.2850e-01	-6.8714	-47.394958	0.000666	6.663891	1.128894	0.026618
1659	8.2900e-01	-6.8528	-47.334462	0.000303	3.029041	0.513134	0.012099
1660	8.2950e-01	-6.8324	-47.221535	0.000565	5.654211	0.957849	0.022585
1661	8.3000e-01	-6.8134	-47.100542	0.000606	6.058083	1.026267	0.024199
1662	8.3050e-01	-6.7930	-47.040046	0.000303	3.029041	0.513134	0.012099
1663	8.3100e-01	-6.7725	-46.947284	0.000464	4.644530	0.786805	0.018552
1664	8.3150e-01	-6.7521	-46.838391	0.000545	5.452275	0.923640	0.021779
1665	8.3200e-01	-6.7323	-46.733530	0.000525	5.250339	0.889431	0.020972
1666	8.3250e-01	-6.7127	-46.656901	0.000384	3.836786	0.649969	0.015326
1667	8.3300e-01	-6.6938	-46.592372	0.000323	3.230978	0.547342	0.012906
1668	8.3350e-01	-6.6718	-46.519776	0.000363	3.634850	0.615760	0.014519
1669	8.3400e-01	-6.6532	-46.370551	0.000747	7.471636	1.265729	0.029845
1670	8.3450e-01	-6.6328	-46.306022	0.000323	3.230978	0.547342	0.012906
1671	8.3500e-01	-6.6120	-46.213260	0.000464	4.644530	0.786805	0.018552
1672	8.3550e-01	-6.5925	-46.120499	0.000464	4.644530	0.786805	0.018552
1673	8.3600e-01	-6.5723	-46.055969	0.000323	3.230978	0.547342	0.012906
1674	8.3650e-01	-6.5519	-45.918844	0.000687	6.865827	1.163103	0.027425
1675	8.3700e-01	-6.5318	-45.874480	0.000222	2.221297	0.376298	0.008873
1676	8.3750e-01	-6.5131	-45.761553	0.000565	5.654211	0.957849	0.022585
1677	8.3800e-01	-6.4918	-45.676858	0.000424	4.240658	0.718387	0.016939
1678	8.3850e-01	-6.4729	-45.576031	0.000505	5.048402	0.855223	0.020165
1679	8.3900e-01	-6.4524	-45.511501	0.000323	3.230978	0.547342	0.012906
1680	8.3950e-01	-6.4332	-45.438905	0.000363	3.634850	0.615760	0.014519
1681	8.4000e-01	-6.4124	-45.350177	0.000444	4.442594	0.752596	0.017746
1682	8.4050e-01	-6.3929	-45.184820	0.000828	8.279380	1.402565	0.033071
1683	8.4100e-01	-6.3721	-45.104158	0.000404	4.038722	0.684178	0.016132
1684	8.4150e-01	-6.3532	-45.051728	0.000263	2.625169	0.444716	0.010486
1685	8.4200e-01	-6.3325	-44.922669	0.000646	6.461955	1.094685	0.025812
1686	8.4250e-01	-6.3117	-44.809742	0.000565	5.654211	0.957849	0.022585
1687	8.4300e-01	-6.2928	-44.809742	0.000000	0.000000	0.000000	0.000000
1688	8.4350e-01	-6.2727	-44.680683	0.000646	6.461955	1.094685	0.025812
1689	8.4400e-01	-6.2510	-44.567756	0.000565	5.654211	0.957849	0.022585
1690	8.4450e-01	-6.2321	-44.507260	0.000303	3.029041	0.513134	0.012099
1691	8.4500e-01	-6.2128	-44.402399	0.000525	5.250339	0.889431	0.020972
1692	8.4550e-01	-6.1921	-44.301572	0.000505	5.048402	0.855223	0.020165
1693	8.4600e-01	-6.1726	-44.184612	0.000586	5.856147	0.992058	0.023392
1694	8.4650e-01	-6.1527	-44.180579	0.000020	0.201936	0.034209	0.000807
1695	8.4700e-01	-6.1329	-44.043453	0.000687	6.865827	1.163103	0.027425
1696	8.4750e-01	-6.1127	-43.934560	0.000545	5.452275	0.923640	0.021779
1697	8.4800e-01	-6.0920	-43.825666	0.000545	5.452275	0.923640	0.021779
1698	8.4850e-01	-6.0720	-43.724838	0.000505	5.048402	0.855223	0.020165
1699	8.4900e-01	-6.0529	-43.632077	0.000464	4.644530	0.786805	0.018552
1700	8.4950e-01	-6.0328	-43.543349	0.000444	4.442594	0.752596	0.017746
1701	8.5000e-01	-6.0121	-43.426389	0.000586	5.856147	0.992058	0.023392
1702	8.5050e-01	-5.9916	-43.321529	0.000525	5.250339	0.889431	0.020972
1703	8.5100e-01	-5.9718	-43.228767	0.000464	4.644530	0.786805	0.018552
1704	8.5150e-01	-5.9528	-43.160205	0.000343	3.432914	0.581551	0.013713
1705	8.5200e-01	-5.9324	-43.103741	0.000283	2.827105	0.478925	0.011293
1706	8.5250e-01	-5.9132	-42.974682	0.000646	6.461955	1.094685	0.025812
1707	8.5300e-01	-5.8924	-42.845623	0.000646	6.461955	1.094685	0.025812
1708	8.5350e-01	-5.8721	-42.736729	0.000545	5.452275	0.923640	0.021779
1709	8.5400e-01	-5.8521	-42.643968	0.000464	4.644530	0.786805	0.018552
1710	8.5450e-01	-5.8326	-42.591538	0.000263	2.625169	0.444716	0.010486
1711	8.5500e-01	-5.8125	-42.531041	0.000303	3.029041	0.513134	0.012099
1712	8.5550e-01	-5.7919	-42.397949	0.000666	6.663891	1.128894	0.026618
1713	8.5600e-01	-5.7716	-42.289055	0.000545	5.452275	0.923640	0.021779
1714	8.5650e-01	-5.7522	-42.172096	0.000586	5.856147	0.992058	0.023392
1715	8.5700e-01	-5.7319	-42.107566	0.000323	3.230978	0.547342	0.012906
1716	8.5750e-01	-5.7124	-41.958341	0.000747	7.471636	1.265729	0.029845
1717	8.5800e-01	-5.6930	-41.865580	0.000464	4.644530	0.786805	0.018552
1718	8.5850e-01	-5.6705	-41.813150	0.000263	2.625169	0.444716	0.010486
1719	8.5900e-01	-5.6522	-41.680058	0.000666	6.663891	1.128894	0.026618
1720	8.5950e-01	-5.6318	-41.635693	0.000222	2.221297	0.376298	0.008873
1721	8.6000e-01	-5.6118	-41.522767	0.000565	5.654211	0.957849	0.022585
1722	8.6050e-01	-5.5924	-41.430005	0.000464	4.644530	0.786805	0.018552
1723	8.6100e-01	-5.5726	-41.309012	0.000606	6.058083	1.026267	0.024199
1724	8.6150e-01	-5.5518	-41.183986	0.000626	6.260019	1.060476	0.025005
1725	8.6200e-01	-5.5323	-41.115424	0.000343	3.432914	0.581551	0.013713
1726	8.6250e-01	-5.5129	-41.038795	0.000384	3.836786	0.649969	0.015326
1727	8.6300e-01	-5.4926	-40.909736	0.000646	6.461955	1.094685	0.025812
1728	8.6350e-01	-5.4731	-40.821008	0.000444	4.442594	0.752596	0.017746
1729	8.6400e-01	-5.4517	-40.728246	0.000464	4.644530	0.786805	0.018552
1730	8.6450e-01	-5.4322	-40.603220	0.000626	6.260019	1.060476	0.025005
1731	8.6500e-01	-5.4122	-40.490293	0.000565	5.654211	0.957849	0.022585
1732	8.6550e-01	-5.3913	-40.429797	0.000303	3.029041	0.513134	0.012099
1733	8.6600e-01	-5.3712	-40.349135	0.000404	4.038722	0.684178	0.016132
1734	8.6650e-01	-5.3510	-40.228142	0.000606	6.058083	1.026267	0.024199
1735	8.6700e-01	-5.3321	-40.163612	0.000323	3.230978	0.547342	0.012906
1736	8.6750e-01	-5.3126	-39.986156	0.000889	8.885188	1.505192	0.035491
1737	8.6800e-01	-5.2924	-39.921627	0.000323	3.230978	0.547342	0.012906
1738	8.6850e-01	-5.2724	-39.808700	0.000565	5.654211	0.957849	0.022585
1739	8.6900e-01	-5.2522	-39.711905	0.000485	4.846466	0.821014	0.019359
1740	8.6950e-01	-5.2320	-39.663508	0.000242	2.423233	0.410507	0.009679
1741	8.7000e-01	-5.2116	-39.502184	0.000808	8.077444	1.368356	0.032265
1742	8.7050e-01	-5.1917	-39.469919	0.000162	1.615489	0.273671	0.006453
1743	8.7100e-01	-5.1716	-39.344893	0.000626	6.260019	1.060476	0.025005
1744	8.7150e-01	-5.1521	-39.183569	0.000808	8.077444	1.368356	0.032265
1745	8.7200e-01	-5.1325	-39.078709	0.000525	5.250339	0.889431	0.020972
1746	8.7250e-01	-5.1116	-39.010146	0.000343	3.432914	0.581551	0.013713
1747	8.7300e-01	-5.0913	-38.901253	0.000545	5.452275	0.923640	0.021779
1748	8.7350e-01	-5.0706	-38.808491	0.000464	4.644530	0.786805	0.018552
1749	8.7400e-01	-5.0504	-38.675399	0.000666	6.663891	1.128894	0.026618
1750	8.7450e-01	-5.0324	-38.590704	0.000424	4.240658	0.718387	0.016939
1751	8.7500e-01	-5.0123	-38.445512	0.000727	7.269700	1.231520	0.029038
1752	8.7550e-01	-4.9921	-38.364850	0.000404	4.038722	0.684178	0.016132
1753	8.7600e-01	-4.9720	-38.251924	0.000565	5.654211	0.957849	0.022585
1754	8.7650e-01	-4.9520	-38.171262	0.000404	4.038722	0.684178	0.016132
1755	8.7700e-01	-4.9323	-38.110765	0.000303	3.029041	0.513134	0.012099
1756	8.7750e-01	-4.9125	-37.965574	0.000727	7.269700	1.231520	0.029038
1757	8.7800e-01	-4.8923	-37.864746	0.000505	5.048402	0.855223	0.020165
1758	8.7850e-01	-4.8719	-37.747786	0.000586	5.856147	0.992058	0.023392
1759	8.7900e-01	-4.8513	-37.683257	0.000323	3.230978	0.547342	0.012906
1760	8.7950e-01	-4.8319	-37.570330	0.000565	5.654211	0.957849	0.022585
1761	8.8000e-01	-4.8121	-37.489668	0.000404	4.038722	0.684178	0.016132
1762	8.8050e-01	-4.7919	-37.413039	0.000384	3.836786	0.649969	0.015326
1763	8.8100e-01	-4.7715	-37.300112	0.000565	5.654211	0.957849	0.022585
1764	8.8150e-01	-4.7524	-37.138788	0.000808	8.077444	1.368356	0.032265
1765	8.8200e-01	-4.7321	-37.054093	0.000424	4.240658	0.718387	0.016939
1766	8.8250e-01	-4.7120	-36.921001	0.000666	6.663891	1.128894	0.026618
1767	8.8300e-01	-4.6918	-36.804041	0.000586	5.856147	0.992058	0.023392
1768	8.8350e-01	-4.6723	-36.723379	0.000404	4.038722	0.684178	0.016132
1769	8.8400e-01	-4.6522	-36.630618	0.000464	4.644530	0.786805	0.018552
1770	8.8450e-01	-4.6326	-36.485427	0.000727	7.269700	1.231520	0.029038
1771	8.8500e-01	-4.6125	-36.404765	0.000404	4.038722	0.684178	0.016132
1772	8.8550e-01	-4.5921	-36.316036	0.000444	4.442594	0.752596	0.017746
1773	8.8600e-01	-4.5716	-36.170845	0.000727	7.269700	1.231520	0.029038
1774	8.8650e-01	-4.5524	-36.061951	0.000545	5.452275	0.923640	0.021779
1775	8.8700e-01	-4.5310	-36.021620	0.000202	2.019361	0.342089	0.008066
1776	8.8750e-01	-4.5124	-35.860296	0.000808	8.077444	1.368356	0.032265
1777	8.8800e-01	-4.4913	-35.767535	0.000464	4.644530	0.786805	0.018552
1778	8.8850e-01	-4.4718	-35.690906	0.000384	3.836786	0.649969	0.015326
1779	8.8900e-01	-4.4520	-35.501350	0.000949	9.490997	1.607818	0.037911
1780	8.8950e-01	-4.4326	-35.420688	0.000404	4.038722	0.684178	0.016132
1781	8.9000e-01	-4.4114	-35.368258	0.000263	2.625169	0.444716	0.010486
1782	8.9050e-01	-4.3922	-35.219034	0.000747	7.471636	1.265729	0.029845
1783	8.9100e-01	-4.3717	-35.106107	0.000565	5.654211	0.957849	0.022585
1784	8.9150e-01	-4.3519	-35.021412	0.000424	4.240658	0.718387	0.016939
1785	8.9200e-01	-4.3311	-34.904452	0.000586	5.856147	0.992058	0.023392
1786	8.9250e-01	-4.3119	-34.839922	0.000323	3.230978	0.547342	0.012906
1787	8.9300e-01	-4.2921	-34.718929	0.000606	6.058083	1.026267	0.024199
1788	8.9350e-01	-4.2720	-34.561638	0.000788	7.875508	1.334147	0.031458
1789	8.9400e-01	-4.2518	-34.505175	0.000283	2.827105	0.478925	0.011293
1790	8.9450e-01	-4.2318	-34.368050	0.000687	6.865827	1.163103	0.027425
1791	8.9500e-01	-4.2115	-34.247057	0.000606	6.058083	1.026267	0.024199
1792	8.9550e-01	-4.1920	-34.113965	0.000666	6.663891	1.128894	0.026618
1793	8.9600e-01	-4.1712	-34.073634	0.000202	2.019361	0.342089	0.008066
1794	8.9650e-01	-4.1523	-33.960707	0.000565	5.654211	0.957849	0.022585
1795	8.9700e-01	-4.1309	-33.823581	0.000687	6.865827	1.163103	0.027425
1796	8.9750e-01	-4.1120	-33.767118	0.000283	2.827105	0.478925	0.011293
1797	8.9800e-01	-4.0916	-33.638059	0.000646	6.461955	1.094685	0.025812
1798	8.9850e-01	-4.0708	-33.517066	0.000606	6.058083	1.026267	0.024199
1799	8.9900e-01	-4.0516	-33.392040	0.000626	6.260019	1.060476	0.025005
1800	8.9950e-01	-4.0321	-33.267014	0.000626	6.260019	1.060476	0.025005
1801	9.0000e-01	-4.0113	-33.166186	0.000505	5.048402	0.855223	0.020165
1802	9.0050e-01	-3.9924	-33.275080	-0.000545	-5.452275	-0.923640	-0.021779
1803	9.0100e-01	-3.9715	-32.839505	0.002181	21.809099	3.694561	0.087115
1804	9.0150e-01	-3.9518	-32.843538	-0.000020	-0.201936	-0.034209	-0.000807
1805	9.0200e-01	-3.9320	-32.734645	0.000545	5.452275	0.923640	0.021779
1806	9.0250e-01	-3.9121	-32.605586	0.000646	6.461955	1.094685	0.025812
1807	9.0300e-01	-3.8924	-32.500725	0.000525	5.250339	0.889431	0.020972
1808	9.0350e-01	-3.8712	-32.379732	0.000606	6.058083	1.026267	0.024199
1809	9.0400e-01	-3.8514	-32.242607	0.000687	6.865827	1.163103	0.027425
1810	9.0450e-01	-3.8319	-32.149846	0.000464	4.644530	0.786805	0.018552
1811	9.0500e-01	-3.8117	-32.117581	0.000162	1.615489	0.273671	0.006453
1812	9.0550e-01	-3.7910	-31.915926	0.001010	10.096805	1.710445	0.040331
1813	9.0600e-01	-3.7720	-31.863496	0.000263	2.625169	0.444716	0.010486
1814	9.0650e-01	-3.7519	-31.730403	0.000666	6.663891	1.128894	0.026618
1815	9.0700e-01	-3.7318	-31.565046	0.000828	8.279380	1.402565	0.033071
1816	9.0750e-01	-3.7111	-31.480351	0.000424	4.240658	0.718387	0.016939
1817	9.0800e-01	-3.6918	-31.395656	0.000424	4.240658	0.718387	0.016939
1818	9.0850e-01	-3.6727	-31.246431	0.000747	7.471636	1.265729	0.029845
1819	9.0900e-01	-3.6512	-31.105273	0.000707	7.067763	1.197312	0.028232
1820	9.0950e-01	-3.6323	-31.056876	0.000242	2.423233	0.410507	0.009679
1821	9.1000e-01	-3.6116	-30.911684	0.000727	7.269700	1.231520	0.029038
1822	9.1050e-01	-3.5914	-30.798757	0.000565	5.654211	0.957849	0.022585
1823	9.1100e-01	-3.5719	-30.734228	0.000323	3.230978	0.547342	0.012906
1824	9.1150e-01	-3.5531	-30.576937	0.000788	7.875508	1.334147	0.031458
1825	9.1200e-01	-3.5316	-30.492242	0.000424	4.240658	0.718387	0.016939
1826	9.1250e-01	-3.5120	-30.355117	0.000687	6.865827	1.163103	0.027425
1827	9.1300e-01	-3.4920	-30.250256	0.000525	5.250339	0.889431	0.020972
1828	9.1350e-01	-3.4713	-30.165561	0.000424	4.240658	0.718387	0.016939
1829	9.1400e-01	-3.4510	-30.024403	0.000707	7.067763	1.197312	0.028232
1830	9.1450e-01	-3.4327	-29.984072	0.000202	2.019361	0.342089	0.008066
1831	9.1500e-01	-3.4113	-29.810648	0.000868	8.683252	1.470983	0.034685
1832	9.1550e-01	-3.3912	-29.665457	0.000727	7.269700	1.231520	0.029038
1833	9.1600e-01	-3.3710	-29.536398	0.000646	6.461955	1.094685	0.025812
1834	9.1650e-01	-3.3518	-29.447669	0.000444	4.442594	0.752596	0.017746
1835	9.1700e-01	-3.3326	-29.330710	0.000586	5.856147	0.992058	0.023392
1836	9.1750e-01	-3.3125	-29.221816	0.000545	5.452275	0.923640	0.021779
1837	9.1800e-01	-3.2913	-29.100823	0.000606	6.058083	1.026267	0.024199
1838	9.1850e-01	-3.2716	-28.995962	0.000525	5.250339	0.889431	0.020972
1839	9.1900e-01	-3.2520	-28.891102	0.000525	5.250339	0.889431	0.020972
1840	9.1950e-01	-3.2310	-28.729778	0.000808	8.077444	1.368356	0.032265
1841	9.2000e-01	-3.2117	-28.608785	0.000606	6.058083	1.026267	0.024199
1842	9.2050e-01	-3.1922	-28.520057	0.000444	4.442594	0.752596	0.017746
1843	9.2100e-01	-3.1715	-28.447461	0.000363	3.634850	0.615760	0.014519
1844	9.2150e-01	-3.1519	-28.241773	0.001030	10.298741	1.744654	0.041138
1845	9.2200e-01	-3.1313	-28.161111	0.000404	4.038722	0.684178	0.016132
1846	9.2250e-01	-3.1113	-28.088515	0.000363	3.634850	0.615760	0.014519
1847	9.2300e-01	-3.0921	-27.975588	0.000565	5.654211	0.957849	0.022585
1848	9.2350e-01	-3.0711	-27.802165	0.000868	8.683252	1.470983	0.034685
1849	9.2400e-01	-3.0512	-27.721503	0.000404	4.038722	0.684178	0.016132
1850	9.2450e-01	-3.0306	-27.596477	0.000626	6.260019	1.060476	0.025005
1851	9.2500e-01	-3.0122	-27.495650	0.000505	5.048402	0.855223	0.020165
1852	9.2550e-01	-2.9920	-27.314160	0.000909	9.087124	1.539401	0.036298
1853	9.2600e-01	-2.9719	-27.213333	0.000505	5.048402	0.855223	0.020165
1854	9.2650e-01	-2.9514	-27.084274	0.000646	6.461955	1.094685	0.025812
1855	9.2700e-01	-2.9319	-26.967314	0.000586	5.856147	0.992058	0.023392
1856	9.2750e-01	-2.9124	-26.870519	0.000485	4.846466	0.821014	0.019359
1857	9.2800e-01	-2.8913	-26.733394	0.000687	6.865827	1.163103	0.027425
1858	9.2850e-01	-2.8719	-26.608368	0.000626	6.260019	1.060476	0.025005
1859	9.2900e-01	-2.8522	-26.519640	0.000444	4.442594	0.752596	0.017746
1860	9.2950e-01	-2.8313	-26.366382	0.000767	7.673572	1.299938	0.030652
1861	9.3000e-01	-2.8118	-26.281687	0.000424	4.240658	0.718387	0.016939
1862	9.3050e-01	-2.7913	-26.196992	0.000424	4.240658	0.718387	0.016939
1863	9.3100e-01	-2.7718	-25.975172	0.001111	11.106485	1.881490	0.044364
1864	9.3150e-01	-2.7522	-25.934841	0.000202	2.019361	0.342089	0.008066
1865	9.3200e-01	-2.7309	-25.789649	0.000727	7.269700	1.231520	0.029038
1866	9.3250e-01	-2.7119	-25.660590	0.000646	6.461955	1.094685	0.025812
1867	9.3300e-01	-2.6917	-25.567829	0.000464	4.644530	0.786805	0.018552
1868	9.3350e-01	-2.6710	-25.422637	0.000727	7.269700	1.231520	0.029038
1869	9.3400e-01	-2.6511	-25.317776	0.000525	5.250339	0.889431	0.020972
1870	9.3450e-01	-2.6316	-25.176618	0.000707	7.067763	1.197312	0.028232
1871	9.3500e-01	-2.6113	-25.104022	0.000363	3.634850	0.615760	0.014519
1872	9.3550e-01	-2.5922	-24.974963	0.000646	6.461955	1.094685	0.025812
1873	9.3600e-01	-2.5703	-24.882202	0.000464	4.644530	0.786805	0.018552
1874	9.3650e-01	-2.5513	-24.704745	0.000889	8.885188	1.505192	0.035491
1875	9.3700e-01	-2.5304	-24.599885	0.000525	5.250339	0.889431	0.020972
1876	9.3750e-01	-2.5108	-24.462760	0.000687	6.865827	1.163103	0.027425
1877	9.3800e-01	-2.4918	-24.365965	0.000485	4.846466	0.821014	0.019359
1878	9.3850e-01	-2.4720	-24.228840	0.000687	6.865827	1.163103	0.027425
1879	9.3900e-01	-2.4525	-24.115913	0.000565	5.654211	0.957849	0.022585
1880	9.3950e-01	-2.4323	-23.954589	0.000808	8.077444	1.368356	0.032265
1881	9.4000e-01	-2.4119	-23.890060	0.000323	3.230978	0.547342	0.012906
1882	9.4050e-01	-2.3922	-23.765034	0.000626	6.260019	1.060476	0.025005
1883	9.4100e-01	-2.3719	-23.664206	0.000505	5.048402	0.855223	0.020165
1884	9.4150e-01	-2.3524	-23.498849	0.000828	8.279380	1.402565	0.033071
1885	9.4200e-01	-2.3316	-23.442386	0.000283	2.827105	0.478925	0.011293
1886	9.4250e-01	-2.3118	-23.301227	0.000707	7.067763	1.197312	0.028232
1887	9.4300e-01	-2.2913	-23.107638	0.000969	9.692933	1.642027	0.038718
1888	9.4350e-01	-2.2718	-23.051175	0.000283	2.827105	0.478925	0.011293
1889	9.4400e-01	-2.2523	-22.914050	0.000687	6.865827	1.163103	0.027425
1890	9.4450e-01	-2.2319	-22.801123	0.000565	5.654211	0.957849	0.022585
1891	9.4500e-01	-2.2108	-22.688196	0.000565	5.654211	0.957849	0.022585
1892	9.4550e-01	-2.1918	-22.538972	0.000747	7.471636	1.265729	0.029845
1893	9.4600e-01	-2.1711	-22.417979	0.000606	6.058083	1.026267	0.024199
1894	9.4650e-01	-2.1519	-22.264721	0.000767	7.673572	1.299938	0.030652
1895	9.4700e-01	-2.1317	-22.163893	0.000505	5.048402	0.855223	0.020165
1896	9.4750e-01	-2.1121	-22.139695	0.000121	1.211617	0.205253	0.004840
1897	9.4800e-01	-2.0911	-21.905775	0.001171	11.712294	1.984116	0.046784
1898	9.4850e-01	-2.0715	-21.825113	0.000404	4.038722	0.684178	0.016132
1899	9.4900e-01	-2.0512	-21.619425	0.001030	10.298741	1.744654	0.041138
1900	9.4950e-01	-2.0316	-21.562962	0.000283	2.827105	0.478925	0.011293
1901	9.5000e-01	-2.0112	-21.446002	0.000586	5.856147	0.992058	0.023392
1902	9.5050e-01	-1.9919	-21.329042	0.000586	5.856147	0.992058	0.023392
1903	9.5100e-01	-1.9724	-21.147553	0.000909	9.087124	1.539401	0.036298
1904	9.5150e-01	-1.9520	-21.034626	0.000565	5.654211	0.957849	0.022585
1905	9.5200e-01	-1.9321	-20.881368	0.000767	7.673572	1.299938	0.030652
1906	9.5250e-01	-1.9125	-20.772474	0.000545	5.452275	0.923640	0.021779
1907	9.5300e-01	-1.8913	-20.679713	0.000464	4.644530	0.786805	0.018552
1908	9.5350e-01	-1.8708	-20.558720	0.000606	6.058083	1.026267	0.024199
1909	9.5400e-01	-1.8516	-20.445793	0.000565	5.654211	0.957849	0.022585
1910	9.5450e-01	-1.8317	-20.300602	0.000727	7.269700	1.231520	0.029038
1911	9.5500e-01	-1.8118	-20.187675	0.000565	5.654211	0.957849	0.022585
1912	9.5550e-01	-1.7921	-20.066682	0.000606	6.058083	1.026267	0.024199
1913	9.5600e-01	-1.7714	-19.949722	0.000586	5.856147	0.992058	0.023392
1914	9.5650e-01	-1.7517	-19.820663	0.000646	6.461955	1.094685	0.025812
1915	9.5700e-01	-1.7310	-19.659339	0.000808	8.077444	1.368356	0.032265
1916	9.5750e-01	-1.7118	-19.546412	0.000565	5.654211	0.957849	0.022585
1917	9.5800e-01	-1.6910	-19.393155	0.000767	7.673572	1.299938	0.030652
1918	9.5850e-01	-1.6721	-19.328625	0.000323	3.230978	0.547342	0.012906
1919	9.5900e-01	-1.6512	-19.215698	0.000565	5.654211	0.957849	0.022585
1920	9.5950e-01	-1.6312	-19.066474	0.000747	7.471636	1.265729	0.029845
1921	9.6000e-01	-1.6118	-19.005977	0.000303	3.029041	0.513134	0.012099
1922	9.6050e-01	-1.5916	-18.828521	0.000889	8.885188	1.505192	0.035491
1923	9.6100e-01	-1.5711	-18.687362	0.000707	7.067763	1.197312	0.028232
1924	9.6150e-01	-1.5522	-18.598634	0.000444	4.442594	0.752596	0.017746
1925	9.6200e-01	-1.5314	-18.449410	0.000747	7.471636	1.265729	0.029845
1926	9.6250e-01	-1.5121	-18.239688	0.001050	10.500677	1.778863	0.041944
1927	9.6300e-01	-1.4916	-18.211457	0.000141	1.413553	0.239462	0.005646
1928	9.6350e-01	-1.4709	-18.046100	0.000828	8.279380	1.402565	0.033071
1929	9.6400e-01	-1.4509	-17.896875	0.000747	7.471636	1.265729	0.029845
1930	9.6450e-01	-1.4317	-17.779915	0.000586	5.856147	0.992058	0.023392
1931	9.6500e-01	-1.4112	-17.642790	0.000687	6.865827	1.163103	0.027425
1932	9.6550e-01	-1.3914	-17.497598	0.000727	7.269700	1.231520	0.029038
1933	9.6600e-01	-1.3712	-17.433069	0.000323	3.230978	0.547342	0.012906
1934	9.6650e-01	-1.3514	-17.316109	0.000586	5.856147	0.992058	0.023392
1935	9.6700e-01	-1.3316	-17.178983	0.000687	6.865827	1.163103	0.027425
1936	9.6750e-01	-1.3109	-17.025726	0.000767	7.673572	1.299938	0.030652
1937	9.6800e-01	-1.2912	-16.928931	0.000485	4.846466	0.821014	0.019359
1938	9.6850e-01	-1.2703	-16.771641	0.000788	7.875508	1.334147	0.031458
1939	9.6900e-01	-1.2514	-16.646614	0.000626	6.260019	1.060476	0.025005
1940	9.6950e-01	-1.2324	-16.541754	0.000525	5.250339	0.889431	0.020972
1941	9.7000e-01	-1.2122	-16.404629	0.000687	6.865827	1.163103	0.027425
1942	9.7050e-01	-1.1916	-16.275569	0.000646	6.461955	1.094685	0.025812
1943	9.7100e-01	-1.1726	-16.178775	0.000485	4.846466	0.821014	0.019359
1944	9.7150e-01	-1.1520	-16.053749	0.000626	6.260019	1.060476	0.025005
1945	9.7200e-01	-1.1314	-15.928723	0.000626	6.260019	1.060476	0.025005
1946	9.7250e-01	-1.1118	-15.759333	0.000848	8.481316	1.436774	0.033878
1947	9.7300e-01	-1.0915	-15.614141	0.000727	7.269700	1.231520	0.029038
1948	9.7350e-01	-1.0722	-15.497181	0.000586	5.856147	0.992058	0.023392
1949	9.7400e-01	-1.0518	-15.376188	0.000606	6.058083	1.026267	0.024199
1950	9.7450e-01	-1.0320	-15.085805	0.001454	14.539399	2.463041	0.058077
1951	9.7500e-01	-1.0116	-15.114037	-0.000141	-1.413553	-0.239462	-0.005646
1952	9.7550e-01	-0.9916	-14.932548	0.000909	9.087124	1.539401	0.036298
1953	9.7600e-01	-0.9721	-14.880117	0.000263	2.625169	0.444716	0.010486
1954	9.7650e-01	-0.9509	-14.791389	0.000444	4.442594	0.752596	0.017746
1955	9.7700e-01	-0.9321	-14.601833	0.000949	9.490997	1.607818	0.037911
1956	9.7750e-01	-0.9112	-14.501006	0.000505	5.048402	0.855223	0.020165
1957	9.7800e-01	-0.8912	-14.375980	0.000626	6.260019	1.060476	0.025005
1958	9.7850e-01	-0.8712	-14.267086	0.000545	5.452275	0.923640	0.021779
1959	9.7900e-01	-0.8517	-14.057365	0.001050	10.500677	1.778863	0.041944
1960	9.7950e-01	-0.8312	-13.960571	0.000485	4.846466	0.821014	0.019359
1961	9.8000e-01	-0.8115	-13.851677	0.000545	5.452275	0.923640	0.021779
1962	9.8050e-01	-0.7913	-13.686320	0.000828	8.279380	1.402565	0.033071
1963	9.8100e-01	-0.7712	-13.597592	0.000444	4.442594	0.752596	0.017746
1964	9.8150e-01	-0.7517	-13.464500	0.000666	6.663891	1.128894	0.026618
1965	9.8200e-01	-0.7313	-13.323341	0.000707	7.067763	1.197312	0.028232
1966	9.8250e-01	-0.7121	-13.174117	0.000747	7.471636	1.265729	0.029845
1967	9.8300e-01	-0.6902	-13.020859	0.000767	7.673572	1.299938	0.030652
1968	9.8350e-01	-0.6712	-12.915998	0.000525	5.250339	0.889431	0.020972
1969	9.8400e-01	-0.6513	-12.815171	0.000505	5.048402	0.855223	0.020165
1970	9.8450e-01	-0.6308	-12.674012	0.000707	7.067763	1.197312	0.028232
1971	9.8500e-01	-0.6111	-12.528821	0.000727	7.269700	1.231520	0.029038
1972	9.8550e-01	-0.5917	-12.427993	0.000505	5.048402	0.855223	0.020165
1973	9.8600e-01	-0.5709	-12.274736	0.000767	7.673572	1.299938	0.030652
1974	9.8650e-01	-0.5509	-12.093246	0.000909	9.087124	1.539401	0.036298
1975	9.8700e-01	-0.5318	-12.056948	0.000182	1.817425	0.307880	0.007260
1976	9.8750e-01	-0.5111	-11.976286	0.000404	4.038722	0.684178	0.016132
1977	9.8800e-01	-0.4904	-11.782698	0.000969	9.692933	1.642027	0.038718
1978	9.8850e-01	-0.4717	-11.669771	0.000565	5.654211	0.957849	0.022585
1979	9.8900e-01	-0.4504	-11.484248	0.000929	9.289061	1.573609	0.037105
1980	9.8950e-01	-0.4313	-11.367288	0.000586	5.856147	0.992058	0.023392
1981	9.9000e-01	-0.4115	-11.262428	0.000525	5.250339	0.889431	0.020972
1982	9.9050e-01	-0.3913	-11.113203	0.000747	7.471636	1.265729	0.029845
1983	9.9100e-01	-0.3712	-10.988177	0.000626	6.260019	1.060476	0.025005
1984	9.9150e-01	-0.3514	-10.847019	0.000707	7.067763	1.197312	0.028232
1985	9.9200e-01	-0.3310	-10.713926	0.000666	6.663891	1.128894	0.026618
1986	9.9250e-01	-0.3124	-10.665529	0.000242	2.423233	0.410507	0.009679
1987	9.9300e-01	-0.2914	-10.459841	0.001030	10.298741	1.744654	0.041138
1988	9.9350e-01	-0.2720	-10.334815	0.000626	6.260019	1.060476	0.025005
1989	9.9400e-01	-0.2505	-10.193657	0.000707	7.067763	1.197312	0.028232
1990	9.9450e-01	-0.2316	-10.024267	0.000848	8.481316	1.436774	0.033878
1991	9.9500e-01	-0.2114	-9.943605	0.000404	4.038722	0.684178	0.016132
1992	9.9550e-01	-0.1901	-9.806479	0.000687	6.865827	1.163103	0.027425
1993	9.9600e-01	-0.1716	-9.709685	0.000485	4.846466	0.821014	0.019359
1994	9.9650e-01	-0.1505	-9.568526	0.000707	7.067763	1.197312	0.028232
1995	9.9700e-01	-0.1305	-9.395103	0.000868	8.683252	1.470983	0.034685
1996	9.9750e-01	-0.1099	-9.306375	0.000444	4.442594	0.752596	0.017746
1997	9.9800e-01	-0.0912	-9.177316	0.000646	6.461955	1.094685	0.025812
1998	9.9850e-01	-0.0704	-9.040191	0.000687	6.865827	1.163103	0.027425
1999	9.9900e-01	-0.0507	-8.882900	0.000788	7.875508	1.334147	0.031458
2000	9.9950e-01	-0.0310	-8.753841	0.000646	6.461955	1.094685	0.025812
2001	1.0000e+00	-0.0111	-8.624781	0.000646	6.461955	1.094685	0.025812

Smooth data before PMax, +/-Pr and +/-Vc Calc.

PMax (uC/cm2):	6.04e+01
Pr (uC/cm2):	1.00e+01
-Pr (uC/cm2):	-6.38e+00
PLoss (uC/cm2):	-6.40e+00
-Vc:	-1.42e+00
C (Max-Eff) (nF):	6.05e-01
K (Eff):	1.02e+03
Vert. (+/-Pr) Shift (uC/cm2):	1.82e+00
Offset (uC/cm2):	2.28e+00

A (Loop Area - uC/cm2·Volts):	-3.30e-02



Hysteresis Version: 5.48.1 - Radiant Technologies, Inc., 1999 - 9/12/24

