»»»»»»»»»»»»»»»»»»»»»»»»»»»»»»»»»»»» Hysteresis ««««««««««««««««««««««««««««««««««««
»»»  Executed Version:	5.48.1
»»»  Vision Version:	5.48.4 (R)
»»»  Vision Compiled:	9/18/24
»»»  Driver Version:	5.47.0
»»»  Windows Version:	Windows 8 or 8.1
»»»  Processor Information:	x86 (AMD or Intel) - 32 Processors
»»»  Tester Name:	PMF21124-494 (100V)
»»»  Tester S/N:	PMF21124-494
»»»  Internal Amp Type:	100V RevK 270k
»»»  Internal Amp S/N:	iAB2-596/K     
»»»  Execution Count:	1
»»»»»»»»»»»»»»»»»»»»»»»»»»»»»»»»»»»»»»»»»»««««««««««««««««««««««««««««««««««««««««««

Stored:	10/10/2025 - 10:44:3
Configured:	10/10/25 10:37:25 AM
Executed:	10/10/25 10:41:40 AM

»»»»»»»»»»»»»»»»»»»»»»»»»»»»»»»»»»» Sample Info ««««««««««««««««««««««««««««««««««««
Sample Name:	Int. Ref. Ferroelectric
Lot Name:	N/A
Wafer Name:	N/A
Die Row/Column:	0/0
Capacitor Number:	0
Sample Area (cm2):	1.00e-04
Sample Thickness (microns):	3.00e-01

Amplifier:	Internal

»»»»»»»»»»»»»»»»»»»»»»»»»»»»»»»»»»» Tester Info «««««««««««««««««««««««««««««««««««
Tester Name:	PMF21124-494 (100V)
Tester Serial Number:	PMF21124-494
Return Signal Amp. Level:	0.02 [Index: 2]

»»»»»»»»»»»»»»»»»»»»»»»»»»»»»»»» Hysteresis Info ««««««««««««««««««««««««««««««««««
Task Name:	Hyst-170
Volts:	20.00
Field:	666.67 (kV/cm)
DCBias:	0.00
DCField:	0.00 (kV/cm)
Hysteresis Period (ms):	5.00e-01
Preset:	Enabled
Preset Delay (ms):	1.00e+03
Profile:	Standard Monopolar

»»»»»»»»»»»»»»»»»»»»»»»»»»»»»»»»»»»»»» Data «««««««««««««««««««««««««««««««««««««««
Points:	1001

Valid Data

Point	Time (ms)	Drive Voltage	Measured Polarization (uC/cm2)	Capacitance (uF)	Normalized Capacitance (uF/cm2)	Dielectric Constant	Instantaneous Current (mA)
   1	0.0000e+00	0.0273	-36.627028	-0.001240	-12.397625	-4.200429	0.101944
   2	5.0000e-04	-0.0016	-36.117308	-0.001240	-12.397625	-4.200429	0.101944
   3	1.0000e-03	0.1155	-36.153717	-0.000089	-0.885545	-0.300031	-0.007282
   4	1.5000e-03	0.1749	-36.153717	0.000000	0.000000	0.000000	0.000000
   5	2.0000e-03	0.1845	-36.080900	0.000177	1.771089	0.600061	0.014563
   6	2.5000e-03	0.2230	-36.044491	0.000089	0.885545	0.300031	0.007282
   7	3.0000e-03	0.2487	-35.862448	0.000443	4.427723	1.500153	0.036409
   8	3.5000e-03	0.2920	-35.607588	0.000620	6.198812	2.100214	0.050972
   9	4.0000e-03	0.3513	-35.607588	0.000000	0.000000	0.000000	0.000000
  10	4.5000e-03	0.4123	-35.389137	0.000531	5.313268	1.800184	0.043690
  11	5.0000e-03	0.4075	-35.061460	-0.000797	-7.969902	-2.700276	0.065535
  12	5.5000e-03	0.4524	-35.025051	0.000089	0.885545	0.300031	0.007282
  13	6.0000e-03	0.5134	-34.770191	0.000620	6.198812	2.100214	0.050972
  14	6.5000e-03	0.4989	-34.551740	-0.000531	-5.313268	-1.800184	0.043690
  15	7.0000e-03	0.5871	-34.442514	0.000266	2.656634	0.900092	0.021845
  16	7.5000e-03	0.6096	-33.969202	0.001151	11.512080	3.900398	0.094662
  17	8.0000e-03	0.6529	-33.896385	0.000177	1.771089	0.600061	0.014563
  18	8.5000e-03	0.7139	-33.823568	0.000177	1.771089	0.600061	0.014563
  19	9.0000e-03	0.7283	-33.423074	0.000974	9.740991	3.300337	0.080099
  20	9.5000e-03	0.7909	-33.605117	-0.000443	-4.427723	-1.500153	-0.036409
  21	1.0000e-02	0.8133	-33.277439	0.000797	7.969902	2.700276	0.065535
  22	1.0500e-02	0.8807	-33.423074	-0.000354	-3.542179	-1.200123	-0.029127
  23	1.1000e-02	0.8984	-32.694902	0.001771	17.710893	6.000613	0.145634
  24	1.1500e-02	0.9160	-32.658494	0.000089	0.885545	0.300031	0.007282
  25	1.2000e-02	0.9609	-32.367225	0.000708	7.084357	2.400245	0.058254
  26	1.2500e-02	1.0428	-32.440042	-0.000177	-1.771089	-0.600061	-0.014563
  27	1.3000e-02	1.0219	-31.893913	-0.001328	-13.283169	-4.500460	0.109226
  28	1.3500e-02	1.0973	-32.039548	-0.000354	-3.542179	-1.200123	-0.029127
  29	1.4000e-02	1.1647	-31.675462	0.000886	8.855446	3.000306	0.072817
  30	1.4500e-02	1.1968	-31.711871	-0.000089	-0.885545	-0.300031	-0.007282
  31	1.5000e-02	1.2240	-31.311376	0.000974	9.740991	3.300337	0.080099
  32	1.5500e-02	1.2529	-31.347785	-0.000089	-0.885545	-0.300031	-0.007282
  33	1.6000e-02	1.3203	-30.728839	0.001505	15.054259	5.100521	0.123789
  34	1.6500e-02	1.3379	-31.129333	-0.000974	-9.740991	-3.300337	-0.080099
  35	1.7000e-02	1.3957	-30.546796	0.001417	14.168714	4.800490	0.116507
  36	1.7500e-02	1.4342	-30.510387	0.000089	0.885545	0.300031	0.007282
  37	1.8000e-02	1.4679	-30.073485	0.001063	10.626536	3.600368	0.087381
  38	1.8500e-02	1.5160	-30.473979	-0.000974	-9.740991	-3.300337	-0.080099
  39	1.9000e-02	1.5208	-29.745807	0.001771	17.710893	6.000613	0.145634
  40	1.9500e-02	1.6026	-29.964259	-0.000531	-5.313268	-1.800184	-0.043690
  41	2.0000e-02	1.6347	-29.454539	0.001240	12.397625	4.200429	0.101944
  42	2.0500e-02	1.6475	-29.636582	-0.000443	-4.427723	-1.500153	-0.036409
  43	2.1000e-02	1.7069	-29.236087	0.000974	9.740991	3.300337	0.080099
  44	2.1500e-02	1.7422	-29.163270	0.000177	1.771089	0.600061	0.014563
  45	2.2000e-02	1.7807	-29.090453	0.000177	1.771089	0.600061	0.014563
  46	2.2500e-02	1.8208	-28.471507	0.001505	15.054259	5.100521	0.123789
  47	2.3000e-02	1.9106	-28.799184	-0.000797	-7.969902	-2.700276	-0.065535
  48	2.3500e-02	1.9283	-28.544324	0.000620	6.198812	2.100214	0.050972
  49	2.4000e-02	1.9155	-27.998196	-0.001328	-13.283169	-4.500460	0.109226
  50	2.4500e-02	1.9636	-28.107421	-0.000266	-2.656634	-0.900092	-0.021845
  51	2.5000e-02	2.0053	-27.415658	0.001683	16.825348	5.700582	0.138353
  52	2.5500e-02	2.0679	-27.706927	-0.000708	-7.084357	-2.400245	-0.058254
  53	2.6000e-02	2.0855	-27.015164	0.001683	16.825348	5.700582	0.138353
  54	2.6500e-02	2.1497	-27.160798	-0.000354	-3.542179	-1.200123	-0.029127
  55	2.7000e-02	2.1721	-26.942347	0.000531	5.313268	1.800184	0.043690
  56	2.7500e-02	2.2331	-27.124390	-0.000443	-4.427723	-1.500153	-0.036409
  57	2.8000e-02	2.2427	-26.833121	0.000708	7.084357	2.400245	0.058254
  58	2.8500e-02	2.2860	-26.286993	0.001328	13.283169	4.500460	0.109226
  59	2.9000e-02	2.3069	-26.250584	0.000089	0.885545	0.300031	0.007282
  60	2.9500e-02	2.3711	-26.432627	-0.000443	-4.427723	-1.500153	-0.036409
  61	3.0000e-02	2.4208	-25.959315	0.001151	11.512080	3.900398	0.094662
  62	3.0500e-02	2.4577	-25.668047	0.000708	7.084357	2.400245	0.058254
  63	3.1000e-02	2.5186	-25.777272	-0.000266	-2.656634	-0.900092	-0.021845
  64	3.1500e-02	2.5170	-25.340370	-0.001063	-10.626536	-3.600368	0.087381
  65	3.2000e-02	2.5828	-25.413187	-0.000177	-1.771089	-0.600061	-0.014563
  66	3.2500e-02	2.6117	-24.903467	0.001240	12.397625	4.200429	0.101944
  67	3.3000e-02	2.6358	-25.049101	-0.000354	-3.542179	-1.200123	-0.029127
  68	3.3500e-02	2.7208	-24.757832	0.000708	7.084357	2.400245	0.058254
  69	3.4000e-02	2.7513	-24.430155	0.000797	7.969902	2.700276	0.065535
  70	3.4500e-02	2.7593	-24.320929	0.000266	2.656634	0.900092	0.021845
  71	3.5000e-02	2.7866	-24.066069	0.000620	6.198812	2.100214	0.050972
  72	3.5500e-02	2.8652	-24.211704	-0.000354	-3.542179	-1.200123	-0.029127
  73	3.6000e-02	2.9053	-23.665575	0.001328	13.283169	4.500460	0.109226
  74	3.6500e-02	2.9293	-23.701984	-0.000089	-0.885545	-0.300031	-0.007282
  75	3.7000e-02	2.9646	-23.483532	0.000531	5.313268	1.800184	0.043690
  76	3.7500e-02	3.0192	-23.119446	0.000886	8.855446	3.000306	0.072817
  77	3.8000e-02	3.0545	-23.265081	-0.000354	-3.542179	-1.200123	-0.029127
  78	3.8500e-02	3.1154	-22.646135	0.001505	15.054259	5.100521	0.123789
  79	3.9000e-02	3.1266	-22.937403	-0.000708	-7.084357	-2.400245	-0.058254
  80	3.9500e-02	3.1748	-22.791769	0.000354	3.542179	1.200123	0.029127
  81	4.0000e-02	3.2069	-22.318458	0.001151	11.512080	3.900398	0.094662
  82	4.0500e-02	3.2406	-21.990780	0.000797	7.969902	2.700276	0.065535
  83	4.1000e-02	3.3143	-22.100006	-0.000266	-2.656634	-0.900092	-0.021845
  84	4.1500e-02	3.3224	-21.881555	0.000531	5.313268	1.800184	0.043690
  85	4.2000e-02	3.3817	-21.845146	0.000089	0.885545	0.300031	0.007282
  86	4.2500e-02	3.4106	-21.772329	0.000177	1.771089	0.600061	0.014563
  87	4.3000e-02	3.4571	-21.444652	0.000797	7.969902	2.700276	0.065535
  88	4.3500e-02	3.5197	-21.153383	0.000708	7.084357	2.400245	0.058254
  89	4.4000e-02	3.5678	-20.971340	0.000443	4.427723	1.500153	0.036409
  90	4.4500e-02	3.6015	-21.080566	-0.000266	-2.656634	-0.900092	-0.021845
  91	4.5000e-02	3.6320	-20.607255	0.001151	11.512080	3.900398	0.094662
  92	4.5500e-02	3.6673	-20.498029	0.000266	2.656634	0.900092	0.021845
  93	4.6000e-02	3.6962	-20.461620	0.000089	0.885545	0.300031	0.007282
  94	4.6500e-02	3.7651	-20.388803	0.000177	1.771089	0.600061	0.014563
  95	4.7000e-02	3.7699	-20.133943	0.000620	6.198812	2.100214	0.050972
  96	4.7500e-02	3.8389	-20.061126	0.000177	1.771089	0.600061	0.014563
  97	4.8000e-02	3.8903	-19.842674	0.000531	5.313268	1.800184	0.043690
  98	4.8500e-02	3.8951	-19.442180	0.000974	9.740991	3.300337	0.080099
  99	4.9000e-02	3.9544	-19.332954	0.000266	2.656634	0.900092	0.021845
 100	4.9500e-02	3.9657	-19.332954	0.000000	0.000000	0.000000	0.000000
 101	5.0000e-02	3.9994	-19.005277	0.000797	7.969902	2.700276	0.065535
 102	5.0500e-02	4.0844	-18.568374	0.001063	10.626536	3.600368	0.087381
 103	5.1000e-02	4.0876	-18.677600	-0.000266	-2.656634	-0.900092	-0.021845
 104	5.1500e-02	4.1133	-18.531966	0.000354	3.542179	1.200123	0.029127
 105	5.2000e-02	4.1967	-18.277106	0.000620	6.198812	2.100214	0.050972
 106	5.2500e-02	4.2255	-18.313514	-0.000089	-0.885545	-0.300031	-0.007282
 107	5.3000e-02	4.2272	-18.131471	0.000443	4.427723	1.500153	0.036409
 108	5.3500e-02	4.2641	-17.840203	0.000708	7.084357	2.400245	0.058254
 109	5.4000e-02	4.3154	-17.621751	0.000531	5.313268	1.800184	0.043690
 110	5.4500e-02	4.3892	-17.585343	0.000089	0.885545	0.300031	0.007282
 111	5.5000e-02	4.4245	-17.476117	0.000266	2.656634	0.900092	0.021845
 112	5.5500e-02	4.4838	-16.820763	0.001594	15.939803	5.400552	0.131071
 113	5.6000e-02	4.4919	-17.075623	-0.000620	-6.198812	-2.100214	-0.050972
 114	5.6500e-02	4.5400	-16.383860	0.001683	16.825348	5.700582	0.138353
 115	5.7000e-02	4.5769	-16.747945	-0.000886	-8.855446	-3.000306	-0.072817
 116	5.7500e-02	4.6170	-16.383860	0.000886	8.855446	3.000306	0.072817
 117	5.8000e-02	4.6362	-16.347451	0.000089	0.885545	0.300031	0.007282
 118	5.8500e-02	4.6940	-16.456677	-0.000266	-2.656634	-0.900092	-0.021845
 119	5.9000e-02	4.7549	-15.910548	0.001328	13.283169	4.500460	0.109226
 120	5.9500e-02	4.7549	-16.129000	0.000531	5.313268	1.800184	-0.043690
 121	6.0000e-02	4.8400	-15.473645	0.001594	15.939803	5.400552	0.131071
 122	6.0500e-02	4.8576	-15.364419	0.000266	2.656634	0.900092	0.021845
 123	6.1000e-02	4.8865	-15.182377	0.000443	4.427723	1.500153	0.036409
 124	6.1500e-02	4.9410	-14.927517	0.000620	6.198812	2.100214	0.050972
 125	6.2000e-02	5.0052	-15.364419	-0.001063	-10.626536	-3.600368	-0.087381
 126	6.2500e-02	5.0309	-14.599839	0.001860	18.596437	6.300643	0.152916
 127	6.3000e-02	5.0549	-14.818291	-0.000531	-5.313268	-1.800184	-0.043690
 128	6.3500e-02	5.1031	-14.454205	0.000886	8.855446	3.000306	0.072817
 129	6.4000e-02	5.1528	-14.126528	0.000797	7.969902	2.700276	0.065535
 130	6.4500e-02	5.1833	-13.908076	0.000531	5.313268	1.800184	0.043690
 131	6.5000e-02	5.2105	-14.017302	-0.000266	-2.656634	-0.900092	-0.021845
 132	6.5500e-02	5.2378	-13.289131	0.001771	17.710893	6.000613	0.145634
 133	6.6000e-02	5.3132	-13.762442	-0.001151	-11.512080	-3.900398	-0.094662
 134	6.6500e-02	5.3196	-13.252722	0.001240	12.397625	4.200429	0.101944
 135	6.7000e-02	5.4015	-13.398356	-0.000354	-3.542179	-1.200123	-0.029127
 136	6.7500e-02	5.4239	-13.070679	0.000797	7.969902	2.700276	0.065535
 137	6.8000e-02	5.4496	-12.852228	0.000531	5.313268	1.800184	0.043690
 138	6.8500e-02	5.5073	-12.888636	-0.000089	-0.885545	-0.300031	-0.007282
 139	6.9000e-02	5.5458	-12.597368	0.000708	7.084357	2.400245	0.058254
 140	6.9500e-02	5.5956	-12.560959	0.000089	0.885545	0.300031	0.007282
 141	7.0000e-02	5.6293	-12.342508	0.000531	5.313268	1.800184	0.043690
 142	7.0500e-02	5.6694	-12.233282	0.000266	2.656634	0.900092	0.021845
 143	7.1000e-02	5.7127	-11.614336	0.001505	15.054259	5.100521	0.123789
 144	7.1500e-02	5.7432	-11.577927	0.000089	0.885545	0.300031	0.007282
 145	7.2000e-02	5.7833	-11.723562	-0.000354	-3.542179	-1.200123	-0.029127
 146	7.2500e-02	5.8121	-11.650745	0.000177	1.771089	0.600061	0.014563
 147	7.3000e-02	5.8715	-11.286659	0.000886	8.855446	3.000306	0.072817
 148	7.3500e-02	5.8875	-11.250250	0.000089	0.885545	0.300031	0.007282
 149	7.4000e-02	5.9292	-11.068207	0.000443	4.427723	1.500153	0.036409
 150	7.4500e-02	5.9838	-11.104616	-0.000089	-0.885545	-0.300031	-0.007282
 151	7.5000e-02	6.0159	-10.886165	0.000531	5.313268	1.800184	0.043690
 152	7.5500e-02	6.0528	-10.740530	0.000354	3.542179	1.200123	0.029127
 153	7.6000e-02	6.1250	-10.558487	0.000443	4.427723	1.500153	0.036409
 154	7.6500e-02	6.1586	-10.121584	0.001063	10.626536	3.600368	0.087381
 155	7.7000e-02	6.2004	-9.939542	0.000443	4.427723	1.500153	0.036409
 156	7.7500e-02	6.2180	-9.903133	0.000089	0.885545	0.300031	0.007282
 157	7.8000e-02	6.2389	-9.793907	0.000266	2.656634	0.900092	0.021845
 158	7.8500e-02	6.3030	-9.466230	0.000797	7.969902	2.700276	0.065535
 159	7.9000e-02	6.3608	-9.357004	0.000266	2.656634	0.900092	0.021845
 160	7.9500e-02	6.3624	-9.138553	0.000531	5.313268	1.800184	0.043690
 161	8.0000e-02	6.4121	-8.738058	0.000974	9.740991	3.300337	0.080099
 162	8.0500e-02	6.4570	-8.810876	-0.000177	-1.771089	-0.600061	-0.014563
 163	8.1000e-02	6.4394	-8.556016	-0.000620	-6.198812	-2.100214	0.050972
 164	8.1500e-02	6.5212	-8.592424	-0.000089	-0.885545	-0.300031	-0.007282
 165	8.2000e-02	6.5517	-8.191930	0.000974	9.740991	3.300337	0.080099
 166	8.2500e-02	6.6159	-8.410381	-0.000531	-5.313268	-1.800184	-0.043690
 167	8.3000e-02	6.6592	-7.791435	0.001505	15.054259	5.100521	0.123789
 168	8.3500e-02	6.6848	-8.046296	-0.000620	-6.198812	-2.100214	-0.050972
 169	8.4000e-02	6.7330	-7.609393	0.001063	10.626536	3.600368	0.087381
 170	8.4500e-02	6.7779	-7.682210	-0.000177	-1.771089	-0.600061	-0.014563
 171	8.5000e-02	6.8212	-7.354533	0.000797	7.969902	2.700276	0.065535
 172	8.5500e-02	6.9030	-7.063264	0.000708	7.084357	2.400245	0.058254
 173	8.6000e-02	6.8966	-7.318124	0.000620	6.198812	2.100214	-0.050972
 174	8.6500e-02	6.9351	-6.990447	0.000797	7.969902	2.700276	0.065535
 175	8.7000e-02	6.9784	-6.771995	0.000531	5.313268	1.800184	0.043690
 176	8.7500e-02	6.9961	-6.808404	-0.000089	-0.885545	-0.300031	-0.007282
 177	8.8000e-02	7.0666	-6.335092	0.001151	11.512080	3.900398	0.094662
 178	8.8500e-02	7.1051	-6.589952	-0.000620	-6.198812	-2.100214	-0.050972
 179	8.9000e-02	7.1084	-5.825372	0.001860	18.596437	6.300643	0.152916
 180	8.9500e-02	7.1613	-6.043824	-0.000531	-5.313268	-1.800184	-0.043690
 181	9.0000e-02	7.2142	-5.643329	0.000974	9.740991	3.300337	0.080099
 182	9.0500e-02	7.2592	-5.679738	-0.000089	-0.885545	-0.300031	-0.007282
 183	9.1000e-02	7.2993	-5.170018	0.001240	12.397625	4.200429	0.101944
 184	9.1500e-02	7.3474	-5.352061	-0.000443	-4.427723	-1.500153	-0.036409
 185	9.2000e-02	7.4067	-5.242835	0.000266	2.656634	0.900092	0.021845
 186	9.2500e-02	7.4100	-4.878749	0.000886	8.855446	3.000306	0.072817
 187	9.3000e-02	7.4404	-4.842341	0.000089	0.885545	0.300031	0.007282
 188	9.3500e-02	7.4661	-4.805932	0.000089	0.885545	0.300031	0.007282
 189	9.4000e-02	7.5511	-4.514664	0.000708	7.084357	2.400245	0.058254
 190	9.4500e-02	7.5880	-4.441846	0.000177	1.771089	0.600061	0.014563
 191	9.5000e-02	7.6089	-3.932126	0.001240	12.397625	4.200429	0.101944
 192	9.5500e-02	7.6297	-4.150578	-0.000531	-5.313268	-1.800184	-0.043690
 193	9.6000e-02	7.6795	-3.786492	0.000886	8.855446	3.000306	0.072817
 194	9.6500e-02	7.7099	-3.458815	0.000797	7.969902	2.700276	0.065535
 195	9.7000e-02	7.7757	-3.422406	0.000089	0.885545	0.300031	0.007282
 196	9.7500e-02	7.8206	-3.786492	-0.000886	-8.855446	-3.000306	-0.072817
 197	9.8000e-02	7.8543	-3.385998	0.000974	9.740991	3.300337	0.080099
 198	9.8500e-02	7.8832	-3.021912	0.000886	8.855446	3.000306	0.072817
 199	9.9000e-02	7.9393	-3.021912	0.000000	0.000000	0.000000	0.000000
 200	9.9500e-02	7.9730	-2.585009	0.001063	10.626536	3.600368	0.087381
 201	1.0000e-01	8.0228	-2.767052	-0.000443	-4.427723	-1.500153	-0.036409
 202	1.0050e-01	8.0420	-2.694235	0.000177	1.771089	0.600061	0.014563
 203	1.0100e-01	8.0901	-2.366558	0.000797	7.969902	2.700276	0.065535
 204	1.0150e-01	8.1206	-1.966063	0.000974	9.740991	3.300337	0.080099
 205	1.0200e-01	8.1800	-2.148106	-0.000443	-4.427723	-1.500153	-0.036409
 206	1.0250e-01	8.2040	-2.148106	0.000000	0.000000	0.000000	0.000000
 207	1.0300e-01	8.2778	-1.856837	0.000708	7.084357	2.400245	0.058254
 208	1.0350e-01	8.3532	-1.638386	0.000531	5.313268	1.800184	0.043690
 209	1.0400e-01	8.3163	-1.456343	-0.000443	-4.427723	-1.500153	0.036409
 210	1.0450e-01	8.3757	-1.128666	0.000797	7.969902	2.700276	0.065535
 211	1.0500e-01	8.3821	-1.347117	-0.000531	-5.313268	-1.800184	-0.043690
 212	1.0550e-01	8.4591	-0.873806	0.001151	11.512080	3.900398	0.094662
 213	1.0600e-01	8.4784	-0.873806	0.000000	0.000000	0.000000	0.000000
 214	1.0650e-01	8.5297	-0.873806	0.000000	0.000000	0.000000	0.000000
 215	1.0700e-01	8.6195	-0.473312	0.000974	9.740991	3.300337	0.080099
 216	1.0750e-01	8.6420	-0.364086	0.000266	2.656634	0.900092	0.021845
 217	1.0800e-01	8.6789	-0.291269	0.000177	1.771089	0.600061	0.014563
 218	1.0850e-01	8.6885	0.072817	0.000886	8.855446	3.000306	0.072817
 219	1.0900e-01	8.7302	0.109226	0.000089	0.885545	0.300031	0.007282
 220	1.0950e-01	8.7687	0.182043	0.000177	1.771089	0.600061	0.014563
 221	1.1000e-01	8.8217	0.254860	0.000177	1.771089	0.600061	0.014563
 222	1.1050e-01	8.8457	0.509720	0.000620	6.198812	2.100214	0.050972
 223	1.1100e-01	8.8874	0.436903	-0.000177	-1.771089	-0.600061	-0.014563
 224	1.1150e-01	8.9773	0.910214	0.001151	11.512080	3.900398	0.094662
 225	1.1200e-01	9.0046	1.055849	0.000354	3.542179	1.200123	0.029127
 226	1.1250e-01	9.0158	1.165074	0.000266	2.656634	0.900092	0.021845
 227	1.1300e-01	9.0575	1.201483	0.000089	0.885545	0.300031	0.007282
 228	1.1350e-01	9.0655	1.747612	0.001328	13.283169	4.500460	0.109226
 229	1.1400e-01	9.1281	1.383526	-0.000886	-8.855446	-3.000306	-0.072817
 230	1.1450e-01	9.1730	1.565569	0.000443	4.427723	1.500153	0.036409
 231	1.1500e-01	9.2019	1.820429	0.000620	6.198812	2.100214	0.050972
 232	1.1550e-01	9.2580	2.111697	0.000708	7.084357	2.400245	0.058254
 233	1.1600e-01	9.2917	2.366558	0.000620	6.198812	2.100214	0.050972
 234	1.1650e-01	9.3302	2.257332	-0.000266	-2.656634	-0.900092	-0.021845
 235	1.1700e-01	9.3495	2.402966	0.000354	3.542179	1.200123	0.029127
 236	1.1750e-01	9.4217	2.949095	0.001328	13.283169	4.500460	0.109226
 237	1.1800e-01	9.4185	2.657826	0.000708	7.084357	2.400245	-0.058254
 238	1.1850e-01	9.5115	3.131138	0.001151	11.512080	3.900398	0.094662
 239	1.1900e-01	9.5436	3.276772	0.000354	3.542179	1.200123	0.029127
 240	1.1950e-01	9.5757	3.167546	-0.000266	-2.656634	-0.900092	-0.021845
 241	1.2000e-01	9.6094	3.422406	0.000620	6.198812	2.100214	0.050972
 242	1.2050e-01	9.6623	3.604449	0.000443	4.427723	1.500153	0.036409
 243	1.2100e-01	9.6944	3.531632	-0.000177	-1.771089	-0.600061	-0.014563
 244	1.2150e-01	9.7200	3.895718	0.000886	8.855446	3.000306	0.072817
 245	1.2200e-01	9.7521	3.750083	-0.000354	-3.542179	-1.200123	-0.029127
 246	1.2250e-01	9.8420	4.478255	0.001771	17.710893	6.000613	0.145634
 247	1.2300e-01	9.8676	4.114169	-0.000886	-8.855446	-3.000306	-0.072817
 248	1.2350e-01	9.8757	4.915158	0.001948	19.481982	6.600674	0.160198
 249	1.2400e-01	9.9318	4.842341	-0.000177	-1.771089	-0.600061	-0.014563
 250	1.2450e-01	9.9751	4.587481	-0.000620	-6.198812	-2.100214	-0.050972
 251	1.2500e-01	10.0249	4.842341	0.000620	6.198812	2.100214	0.050972
 252	1.2550e-01	10.0762	4.951566	0.000266	2.656634	0.900092	0.021845
 253	1.2600e-01	10.1067	5.242835	0.000708	7.084357	2.400245	0.058254
 254	1.2650e-01	10.1227	5.279244	0.000089	0.885545	0.300031	0.007282
 255	1.2700e-01	10.1885	5.606921	0.000797	7.969902	2.700276	0.065535
 256	1.2750e-01	10.2125	5.606921	0.000000	0.000000	0.000000	0.000000
 257	1.2800e-01	10.2623	5.752555	0.000354	3.542179	1.200123	0.029127
 258	1.2850e-01	10.2799	5.679738	-0.000177	-1.771089	-0.600061	-0.014563
 259	1.2900e-01	10.3425	6.043824	0.000886	8.855446	3.000306	0.072817
 260	1.2950e-01	10.3601	6.189458	0.000354	3.542179	1.200123	0.029127
 261	1.3000e-01	10.3842	6.189458	0.000000	0.000000	0.000000	0.000000
 262	1.3050e-01	10.4644	6.262275	0.000177	1.771089	0.600061	0.014563
 263	1.3100e-01	10.4837	6.444318	0.000443	4.427723	1.500153	0.036409
 264	1.3150e-01	10.5238	6.662770	0.000531	5.313268	1.800184	0.043690
 265	1.3200e-01	10.5575	7.063264	0.000974	9.740991	3.300337	0.080099
 266	1.3250e-01	10.6152	7.099673	0.000089	0.885545	0.300031	0.007282
 267	1.3300e-01	10.6681	7.354533	0.000620	6.198812	2.100214	0.050972
 268	1.3350e-01	10.7002	7.354533	0.000000	0.000000	0.000000	0.000000
 269	1.3400e-01	10.7163	7.390941	0.000089	0.885545	0.300031	0.007282
 270	1.3450e-01	10.7403	7.500167	0.000266	2.656634	0.900092	0.021845
 271	1.3500e-01	10.8398	7.791435	0.000708	7.084357	2.400245	0.058254
 272	1.3550e-01	10.8446	8.046296	0.000620	6.198812	2.100214	0.050972
 273	1.3600e-01	10.9200	8.373973	0.000797	7.969902	2.700276	0.065535
 274	1.3650e-01	10.9377	8.301156	-0.000177	-1.771089	-0.600061	-0.014563
 275	1.3700e-01	10.9425	8.228338	-0.000177	-1.771089	-0.600061	-0.014563
 276	1.3750e-01	10.9922	8.628833	0.000974	9.740991	3.300337	0.080099
 277	1.3800e-01	11.0708	8.665241	0.000089	0.885545	0.300031	0.007282
 278	1.3850e-01	11.0933	8.774467	0.000266	2.656634	0.900092	0.021845
 279	1.3900e-01	11.1430	9.138553	0.000886	8.855446	3.000306	0.072817
 280	1.3950e-01	11.1879	9.357004	0.000531	5.313268	1.800184	0.043690
 281	1.4000e-01	11.2377	9.357004	0.000000	0.000000	0.000000	0.000000
 282	1.4050e-01	11.2312	9.539047	-0.000443	-4.427723	-1.500153	0.036409
 283	1.4100e-01	11.2874	9.648273	0.000266	2.656634	0.900092	0.021845
 284	1.4150e-01	11.3130	9.648273	0.000000	0.000000	0.000000	0.000000
 285	1.4200e-01	11.3516	9.757499	0.000266	2.656634	0.900092	0.021845
 286	1.4250e-01	11.4302	9.903133	0.000354	3.542179	1.200123	0.029127
 287	1.4300e-01	11.4478	9.939542	0.000089	0.885545	0.300031	0.007282
 288	1.4350e-01	11.4847	10.121584	0.000443	4.427723	1.500153	0.036409
 289	1.4400e-01	11.5553	10.230810	0.000266	2.656634	0.900092	0.021845
 290	1.4450e-01	11.5729	10.594896	0.000886	8.855446	3.000306	0.072817
 291	1.4500e-01	11.6034	10.813347	0.000531	5.313268	1.800184	0.043690
 292	1.4550e-01	11.6692	10.922573	0.000266	2.656634	0.900092	0.021845
 293	1.4600e-01	11.6900	10.740530	-0.000443	-4.427723	-1.500153	-0.036409
 294	1.4650e-01	11.7029	11.068207	0.000797	7.969902	2.700276	0.065535
 295	1.4700e-01	11.7863	11.395885	0.000797	7.969902	2.700276	0.065535
 296	1.4750e-01	11.8280	11.213842	-0.000443	-4.427723	-1.500153	-0.036409
 297	1.4800e-01	11.8649	11.650745	0.001063	10.626536	3.600368	0.087381
 298	1.4850e-01	11.8874	11.505110	-0.000354	-3.542179	-1.200123	-0.029127
 299	1.4900e-01	11.9307	11.905605	0.000974	9.740991	3.300337	0.080099
 300	1.4950e-01	11.9836	11.978422	0.000177	1.771089	0.600061	0.014563
 301	1.5000e-01	12.0221	11.832788	-0.000354	-3.542179	-1.200123	-0.029127
 302	1.5050e-01	12.0574	12.306099	0.001151	11.512080	3.900398	0.094662
 303	1.5100e-01	12.0815	12.306099	0.000000	0.000000	0.000000	0.000000
 304	1.5150e-01	12.1152	12.306099	0.000000	0.000000	0.000000	0.000000
 305	1.5200e-01	12.1585	12.706593	0.000974	9.740991	3.300337	0.080099
 306	1.5250e-01	12.2082	12.597368	-0.000266	-2.656634	-0.900092	-0.021845
 307	1.5300e-01	12.2660	12.925045	0.000797	7.969902	2.700276	0.065535
 308	1.5350e-01	12.2980	12.706593	-0.000531	-5.313268	-1.800184	-0.043690
 309	1.5400e-01	12.3237	13.034271	0.000797	7.969902	2.700276	0.065535
 310	1.5450e-01	12.3670	12.997862	-0.000089	-0.885545	-0.300031	-0.007282
 311	1.5500e-01	12.4023	13.107088	0.000266	2.656634	0.900092	0.021845
 312	1.5550e-01	12.4456	13.726034	0.001505	15.054259	5.100521	0.123789
 313	1.5600e-01	12.4938	13.798851	0.000177	1.771089	0.600061	0.014563
 314	1.5650e-01	12.5162	13.689625	-0.000266	-2.656634	-0.900092	-0.021845
 315	1.5700e-01	12.5547	13.871668	0.000443	4.427723	1.500153	0.036409
 316	1.5750e-01	12.6077	13.835259	-0.000089	-0.885545	-0.300031	-0.007282
 317	1.5800e-01	12.6510	14.417796	0.001417	14.168714	4.800490	0.116507
 318	1.5850e-01	12.7007	14.090119	-0.000797	-7.969902	-2.700276	-0.065535
 319	1.5900e-01	12.7280	14.490614	0.000974	9.740991	3.300337	0.080099
 320	1.5950e-01	12.7825	14.563431	0.000177	1.771089	0.600061	0.014563
 321	1.6000e-01	12.8226	14.636248	0.000177	1.771089	0.600061	0.014563
 322	1.6050e-01	12.8692	14.963925	0.000797	7.969902	2.700276	0.065535
 323	1.6100e-01	12.9237	15.036742	0.000177	1.771089	0.600061	0.014563
 324	1.6150e-01	12.8788	14.963925	0.000177	1.771089	0.600061	-0.014563
 325	1.6200e-01	12.9606	15.364419	0.000974	9.740991	3.300337	0.080099
 326	1.6250e-01	13.0103	15.182377	-0.000443	-4.427723	-1.500153	-0.036409
 327	1.6300e-01	13.0456	15.728505	0.001328	13.283169	4.500460	0.109226
 328	1.6350e-01	13.0986	15.692097	-0.000089	-0.885545	-0.300031	-0.007282
 329	1.6400e-01	13.1451	15.655688	-0.000089	-0.885545	-0.300031	-0.007282
 330	1.6450e-01	13.1756	16.056182	0.000974	9.740991	3.300337	0.080099
 331	1.6500e-01	13.2205	16.201817	0.000354	3.542179	1.200123	0.029127
 332	1.6550e-01	13.2510	16.165408	-0.000089	-0.885545	-0.300031	-0.007282
 333	1.6600e-01	13.2798	16.092591	-0.000177	-1.771089	-0.600061	-0.014563
 334	1.6650e-01	13.3328	16.383860	0.000708	7.084357	2.400245	0.058254
 335	1.6700e-01	13.3857	16.675128	0.000708	7.084357	2.400245	0.058254
 336	1.6750e-01	13.4371	16.638720	-0.000089	-0.885545	-0.300031	-0.007282
 337	1.6800e-01	13.4547	16.602311	-0.000089	-0.885545	-0.300031	-0.007282
 338	1.6850e-01	13.4852	16.929988	0.000797	7.969902	2.700276	0.065535
 339	1.6900e-01	13.5125	17.112031	0.000443	4.427723	1.500153	0.036409
 340	1.6950e-01	13.5590	17.184848	0.000177	1.771089	0.600061	0.014563
 341	1.7000e-01	13.6408	17.366891	0.000443	4.427723	1.500153	0.036409
 342	1.7050e-01	13.6729	17.330483	-0.000089	-0.885545	-0.300031	-0.007282
 343	1.7100e-01	13.6921	17.840203	0.001240	12.397625	4.200429	0.101944
 344	1.7150e-01	13.7370	17.621751	-0.000531	-5.313268	-1.800184	-0.043690
 345	1.7200e-01	13.7755	18.204288	0.001417	14.168714	4.800490	0.116507
 346	1.7250e-01	13.8157	17.730977	-0.001151	-11.512080	-3.900398	-0.094662
 347	1.7300e-01	13.8782	18.277106	0.001328	13.283169	4.500460	0.109226
 348	1.7350e-01	13.8798	18.022246	-0.000620	-6.198812	-2.100214	-0.050972
 349	1.7400e-01	13.9488	18.750417	0.001771	17.710893	6.000613	0.145634
 350	1.7450e-01	13.9777	18.786826	0.000089	0.885545	0.300031	0.007282
 351	1.7500e-01	14.0130	18.495557	-0.000708	-7.084357	-2.400245	-0.058254
 352	1.7550e-01	14.0418	18.859643	0.000886	8.855446	3.000306	0.072817
 353	1.7600e-01	14.0804	18.896051	0.000089	0.885545	0.300031	0.007282
 354	1.7650e-01	14.1301	18.859643	-0.000089	-0.885545	-0.300031	-0.007282
 355	1.7700e-01	14.1654	19.296546	0.001063	10.626536	3.600368	0.087381
 356	1.7750e-01	14.2472	19.223729	-0.000177	-1.771089	-0.600061	-0.014563
 357	1.7800e-01	14.2472	19.478589	-0.000620	-6.198812	-2.100214	0.050972
 358	1.7850e-01	14.2825	19.660632	0.000443	4.427723	1.500153	0.036409
 359	1.7900e-01	14.3370	19.260137	-0.000974	-9.740991	-3.300337	-0.080099
 360	1.7950e-01	14.3755	19.769857	0.001240	12.397625	4.200429	0.101944
 361	1.8000e-01	14.4301	19.842674	0.000177	1.771089	0.600061	0.014563
 362	1.8050e-01	14.4413	20.388803	0.001328	13.283169	4.500460	0.109226
 363	1.8100e-01	14.5263	20.170352	-0.000531	-5.313268	-1.800184	-0.043690
 364	1.8150e-01	14.5440	20.352395	0.000443	4.427723	1.500153	0.036409
 365	1.8200e-01	14.5440	20.315986	0.000089	0.885545	0.300031	-0.007282
 366	1.8250e-01	14.6049	20.716480	0.000974	9.740991	3.300337	0.080099
 367	1.8300e-01	14.6226	20.789297	0.000177	1.771089	0.600061	0.014563
 368	1.8350e-01	14.6787	20.716480	-0.000177	-1.771089	-0.600061	-0.014563
 369	1.8400e-01	14.7076	21.007749	0.000708	7.084357	2.400245	0.058254
 370	1.8450e-01	14.7573	21.262609	0.000620	6.198812	2.100214	0.050972
 371	1.8500e-01	14.8359	21.116975	-0.000354	-3.542179	-1.200123	-0.029127
 372	1.8550e-01	14.8472	21.444652	0.000797	7.969902	2.700276	0.065535
 373	1.8600e-01	14.8905	21.371835	-0.000177	-1.771089	-0.600061	-0.014563
 374	1.8650e-01	14.9129	21.517469	0.000354	3.542179	1.200123	0.029127
 375	1.8700e-01	14.9835	21.845146	0.000797	7.969902	2.700276	0.065535
 376	1.8750e-01	15.0108	21.917963	0.000177	1.771089	0.600061	0.014563
 377	1.8800e-01	15.0252	21.917963	0.000000	0.000000	0.000000	0.000000
 378	1.8850e-01	15.1135	21.990780	0.000177	1.771089	0.600061	0.014563
 379	1.8900e-01	15.1311	22.027189	0.000089	0.885545	0.300031	0.007282
 380	1.8950e-01	15.1712	22.354866	0.000797	7.969902	2.700276	0.065535
 381	1.9000e-01	15.2129	22.864586	0.001240	12.397625	4.200429	0.101944
 382	1.9050e-01	15.2338	22.573318	-0.000708	-7.084357	-2.400245	-0.058254
 383	1.9100e-01	15.2883	22.828178	0.000620	6.198812	2.100214	0.050972
 384	1.9150e-01	15.3268	22.718952	-0.000266	-2.656634	-0.900092	-0.021845
 385	1.9200e-01	15.3830	23.010221	0.000708	7.084357	2.400245	0.058254
 386	1.9250e-01	15.4295	23.083038	0.000177	1.771089	0.600061	0.014563
 387	1.9300e-01	15.4616	23.228672	0.000354	3.542179	1.200123	0.029127
 388	1.9350e-01	15.4792	23.447124	0.000531	5.313268	1.800184	0.043690
 389	1.9400e-01	15.5354	23.301489	-0.000354	-3.542179	-1.200123	-0.029127
 390	1.9450e-01	15.5787	23.665575	0.000886	8.855446	3.000306	0.072817
 391	1.9500e-01	15.6156	23.629166	-0.000089	-0.885545	-0.300031	-0.007282
 392	1.9550e-01	15.6493	23.993252	0.000886	8.855446	3.000306	0.072817
 393	1.9600e-01	15.6974	23.884026	-0.000266	-2.656634	-0.900092	-0.021845
 394	1.9650e-01	15.7135	24.138887	0.000620	6.198812	2.100214	0.050972
 395	1.9700e-01	15.7648	24.175295	0.000089	0.885545	0.300031	0.007282
 396	1.9750e-01	15.8097	24.502972	0.000797	7.969902	2.700276	0.065535
 397	1.9800e-01	15.8755	24.430155	-0.000177	-1.771089	-0.600061	-0.014563
 398	1.9850e-01	15.9060	24.539381	0.000266	2.656634	0.900092	0.021845
 399	1.9900e-01	15.9300	24.685015	0.000354	3.542179	1.200123	0.029127
 400	1.9950e-01	15.9477	24.830649	0.000354	3.542179	1.200123	0.029127
 401	2.0000e-01	16.0118	24.939875	0.000266	2.656634	0.900092	0.021845
 402	2.0050e-01	16.0584	25.049101	0.000266	2.656634	0.900092	0.021845
 403	2.0100e-01	16.0664	25.085510	0.000089	0.885545	0.300031	0.007282
 404	2.0150e-01	16.1418	25.486004	0.000974	9.740991	3.300337	0.080099
 405	2.0200e-01	16.1771	25.340370	-0.000354	-3.542179	-1.200123	-0.029127
 406	2.0250e-01	16.2188	25.704455	0.000886	8.855446	3.000306	0.072817
 407	2.0300e-01	16.2557	25.631638	-0.000177	-1.771089	-0.600061	-0.014563
 408	2.0350e-01	16.2846	25.740864	0.000266	2.656634	0.900092	0.021845
 409	2.0400e-01	16.3375	25.740864	0.000000	0.000000	0.000000	0.000000
 410	2.0450e-01	16.3760	25.959315	0.000531	5.313268	1.800184	0.043690
 411	2.0500e-01	16.4273	25.922907	-0.000089	-0.885545	-0.300031	-0.007282
 412	2.0550e-01	16.4498	26.214175	0.000708	7.084357	2.400245	0.058254
 413	2.0600e-01	16.4931	26.214175	0.000000	0.000000	0.000000	0.000000
 414	2.0650e-01	16.5092	26.541853	0.000797	7.969902	2.700276	0.065535
 415	2.0700e-01	16.5493	26.578261	0.000089	0.885545	0.300031	0.007282
 416	2.0750e-01	16.6054	26.687487	0.000266	2.656634	0.900092	0.021845
 417	2.0800e-01	16.6616	26.905938	0.000531	5.313268	1.800184	0.043690
 418	2.0850e-01	16.7065	27.087981	0.000443	4.427723	1.500153	0.036409
 419	2.0900e-01	16.7321	27.452067	0.000886	8.855446	3.000306	0.072817
 420	2.0950e-01	16.7851	27.197207	-0.000620	-6.198812	-2.100214	-0.050972
 421	2.1000e-01	16.8172	27.306433	0.000266	2.656634	0.900092	0.021845
 422	2.1050e-01	16.8284	27.888970	0.001417	14.168714	4.800490	0.116507
 423	2.1100e-01	16.8926	27.852561	-0.000089	-0.885545	-0.300031	-0.007282
 424	2.1150e-01	16.9263	27.888970	0.000089	0.885545	0.300031	0.007282
 425	2.1200e-01	16.9648	27.342841	-0.001328	-13.283169	-4.500460	-0.109226
 426	2.1250e-01	17.0129	28.071013	0.001771	17.710893	6.000613	0.145634
 427	2.1300e-01	17.0610	27.925379	-0.000354	-3.542179	-1.200123	-0.029127
 428	2.1350e-01	17.1043	28.289464	0.000886	8.855446	3.000306	0.072817
 429	2.1400e-01	17.1412	28.435099	0.000354	3.542179	1.200123	0.029127
 430	2.1450e-01	17.1765	28.362281	-0.000177	-1.771089	-0.600061	-0.014563
 431	2.1500e-01	17.2054	28.143830	-0.000531	-5.313268	-1.800184	-0.043690
 432	2.1550e-01	17.2519	28.762776	0.001505	15.054259	5.100521	0.123789
 433	2.1600e-01	17.2936	28.653550	-0.000266	-2.656634	-0.900092	-0.021845
 434	2.1650e-01	17.3273	28.726367	0.000177	1.771089	0.600061	0.014563
 435	2.1700e-01	17.3787	29.345313	0.001505	15.054259	5.100521	0.123789
 436	2.1750e-01	17.4284	28.908410	-0.001063	-10.626536	-3.600368	-0.087381
 437	2.1800e-01	17.4220	29.236087	-0.000797	-7.969902	-2.700276	0.065535
 438	2.1850e-01	17.4958	29.272496	0.000089	0.885545	0.300031	0.007282
 439	2.1900e-01	17.5359	29.381722	0.000266	2.656634	0.900092	0.021845
 440	2.1950e-01	17.5567	29.745807	0.000886	8.855446	3.000306	0.072817
 441	2.2000e-01	17.6097	29.891442	0.000354	3.542179	1.200123	0.029127
 442	2.2050e-01	17.6417	29.927850	0.000089	0.885545	0.300031	0.007282
 443	2.2100e-01	17.6899	29.600173	-0.000797	-7.969902	-2.700276	-0.065535
 444	2.2150e-01	17.7204	30.182710	0.001417	14.168714	4.800490	0.116507
 445	2.2200e-01	17.7508	30.182710	0.000000	0.000000	0.000000	0.000000
 446	2.2250e-01	17.8054	30.328345	0.000354	3.542179	1.200123	0.029127
 447	2.2300e-01	17.8567	30.546796	0.000531	5.313268	1.800184	0.043690
 448	2.2350e-01	17.9273	30.328345	-0.000531	-5.313268	-1.800184	-0.043690
 449	2.2400e-01	17.8984	30.656022	-0.000797	-7.969902	-2.700276	0.065535
 450	2.2450e-01	17.9610	30.801656	0.000354	3.542179	1.200123	0.029127
 451	2.2500e-01	18.0203	30.692430	-0.000266	-2.656634	-0.900092	-0.021845
 452	2.2550e-01	18.0492	30.983699	0.000708	7.084357	2.400245	0.058254
 453	2.2600e-01	18.0909	31.165742	0.000443	4.427723	1.500153	0.036409
 454	2.2650e-01	18.1487	30.874473	-0.000708	-7.084357	-2.400245	-0.058254
 455	2.2700e-01	18.1599	31.347785	0.001151	11.512080	3.900398	0.094662
 456	2.2750e-01	18.1936	31.493419	0.000354	3.542179	1.200123	0.029127
 457	2.2800e-01	18.2369	31.566236	0.000177	1.771089	0.600061	0.014563
 458	2.2850e-01	18.2850	31.529828	-0.000089	-0.885545	-0.300031	-0.007282
 459	2.2900e-01	18.3364	31.893913	0.000886	8.855446	3.000306	0.072817
 460	2.2950e-01	18.3412	31.711871	-0.000443	-4.427723	-1.500153	-0.036409
 461	2.3000e-01	18.4022	32.185182	0.001151	11.512080	3.900398	0.094662
 462	2.3050e-01	18.4663	32.330816	0.000354	3.542179	1.200123	0.029127
 463	2.3100e-01	18.4888	32.367225	0.000089	0.885545	0.300031	0.007282
 464	2.3150e-01	18.4984	32.294408	-0.000177	-1.771089	-0.600061	-0.014563
 465	2.3200e-01	18.5722	32.512859	0.000531	5.313268	1.800184	0.043690
 466	2.3250e-01	18.5979	32.549268	0.000089	0.885545	0.300031	0.007282
 467	2.3300e-01	18.6685	32.658494	0.000266	2.656634	0.900092	0.021845
 468	2.3350e-01	18.6925	32.804128	0.000354	3.542179	1.200123	0.029127
 469	2.3400e-01	18.7294	32.840536	0.000089	0.885545	0.300031	0.007282
 470	2.3450e-01	18.7631	33.095396	0.000620	6.198812	2.100214	0.050972
 471	2.3500e-01	18.8225	32.913354	-0.000443	-4.427723	-1.500153	-0.036409
 472	2.3550e-01	18.8545	33.095396	0.000443	4.427723	1.500153	0.036409
 473	2.3600e-01	18.8866	33.241031	0.000354	3.542179	1.200123	0.029127
 474	2.3650e-01	18.9267	33.750751	0.001240	12.397625	4.200429	0.101944
 475	2.3700e-01	18.9588	33.495891	-0.000620	-6.198812	-2.100214	-0.050972
 476	2.3750e-01	19.0053	33.605117	0.000266	2.656634	0.900092	0.021845
 477	2.3800e-01	19.0535	33.750751	0.000354	3.542179	1.200123	0.029127
 478	2.3850e-01	19.1016	33.859977	0.000266	2.656634	0.900092	0.021845
 479	2.3900e-01	19.1144	33.969202	0.000266	2.656634	0.900092	0.021845
 480	2.3950e-01	19.1866	34.296880	0.000797	7.969902	2.700276	0.065535
 481	2.4000e-01	19.2187	34.114837	-0.000443	-4.427723	-1.500153	-0.036409
 482	2.4050e-01	19.2572	34.478922	0.000886	8.855446	3.000306	0.072817
 483	2.4100e-01	19.2829	34.260471	-0.000531	-5.313268	-1.800184	-0.043690
 484	2.4150e-01	19.3310	34.770191	0.001240	12.397625	4.200429	0.101944
 485	2.4200e-01	19.3936	34.624557	-0.000354	-3.542179	-1.200123	-0.029127
 486	2.4250e-01	19.3583	34.915825	-0.000708	-7.084357	-2.400245	0.058254
 487	2.4300e-01	19.4305	34.770191	-0.000354	-3.542179	-1.200123	-0.029127
 488	2.4350e-01	19.4818	35.352728	0.001417	14.168714	4.800490	0.116507
 489	2.4400e-01	19.5171	35.207094	-0.000354	-3.542179	-1.200123	-0.029127
 490	2.4450e-01	19.5604	35.243503	0.000089	0.885545	0.300031	0.007282
 491	2.4500e-01	19.6454	35.243503	0.000000	0.000000	0.000000	0.000000
 492	2.4550e-01	19.6390	35.461954	-0.000531	-5.313268	-1.800184	0.043690
 493	2.4600e-01	19.6904	35.352728	-0.000266	-2.656634	-0.900092	-0.021845
 494	2.4650e-01	19.7240	35.753223	0.000974	9.740991	3.300337	0.080099
 495	2.4700e-01	19.7738	35.461954	-0.000708	-7.084357	-2.400245	-0.058254
 496	2.4750e-01	19.8219	36.008083	0.001328	13.283169	4.500460	0.109226
 497	2.4800e-01	19.8395	36.080900	0.000177	1.771089	0.600061	0.014563
 498	2.4850e-01	19.8700	36.299351	0.000531	5.313268	1.800184	0.043690
 499	2.4900e-01	19.9358	36.044491	-0.000620	-6.198812	-2.100214	-0.050972
 500	2.4950e-01	19.9695	36.408577	0.000886	8.855446	3.000306	0.072817
 501	2.5000e-01	19.9871	36.554211	0.000354	3.542179	1.200123	0.029127
 502	2.5050e-01	19.9727	36.408577	0.000354	3.542179	1.200123	-0.029127
 503	2.5100e-01	19.9085	36.627028	-0.000531	-5.313268	-1.800184	0.043690
 504	2.5150e-01	19.9005	36.262943	0.000886	8.855446	3.000306	-0.072817
 505	2.5200e-01	19.8379	36.372168	-0.000266	-2.656634	-0.900092	0.021845
 506	2.5250e-01	19.7802	36.226534	0.000354	3.542179	1.200123	-0.029127
 507	2.5300e-01	19.7561	36.117308	0.000266	2.656634	0.900092	-0.021845
 508	2.5350e-01	19.6887	36.299351	-0.000443	-4.427723	-1.500153	0.036409
 509	2.5400e-01	19.6695	36.190126	0.000266	2.656634	0.900092	-0.021845
 510	2.5450e-01	19.6438	36.153717	0.000089	0.885545	0.300031	-0.007282
 511	2.5500e-01	19.5781	35.789631	0.000886	8.855446	3.000306	-0.072817
 512	2.5550e-01	19.5556	36.008083	-0.000531	-5.313268	-1.800184	0.043690
 513	2.5600e-01	19.5091	35.716814	0.000708	7.084357	2.400245	-0.058254
 514	2.5650e-01	19.4786	35.643997	0.000177	1.771089	0.600061	-0.014563
 515	2.5700e-01	19.4497	35.643997	-0.000000	-0.000000	-0.000000	0.000000
 516	2.5750e-01	19.3984	35.498363	0.000354	3.542179	1.200123	-0.029127
 517	2.5800e-01	19.3952	35.498363	-0.000000	-0.000000	-0.000000	0.000000
 518	2.5850e-01	19.3053	35.425545	0.000177	1.771089	0.600061	-0.014563
 519	2.5900e-01	19.2749	35.425545	-0.000000	-0.000000	-0.000000	0.000000
 520	2.5950e-01	19.2171	35.207094	0.000531	5.313268	1.800184	-0.043690
 521	2.6000e-01	19.2187	35.425545	0.000531	5.313268	1.800184	0.043690
 522	2.6050e-01	19.1497	35.170685	0.000620	6.198812	2.100214	-0.050972
 523	2.6100e-01	19.1417	35.061460	0.000266	2.656634	0.900092	-0.021845
 524	2.6150e-01	19.0840	34.952234	0.000266	2.656634	0.900092	-0.021845
 525	2.6200e-01	19.0422	34.806600	0.000354	3.542179	1.200123	-0.029127
 526	2.6250e-01	18.9941	34.733782	0.000177	1.771089	0.600061	-0.014563
 527	2.6300e-01	18.9620	34.879417	-0.000354	-3.542179	-1.200123	0.029127
 528	2.6350e-01	18.8947	34.551740	0.000797	7.969902	2.700276	-0.065535
 529	2.6400e-01	18.8818	34.442514	0.000266	2.656634	0.900092	-0.021845
 530	2.6450e-01	18.8289	34.151245	0.000708	7.084357	2.400245	-0.058254
 531	2.6500e-01	18.7679	34.697374	-0.001328	-13.283169	-4.500460	0.109226
 532	2.6550e-01	18.7647	34.333288	0.000886	8.855446	3.000306	-0.072817
 533	2.6600e-01	18.7310	34.151245	0.000443	4.427723	1.500153	-0.036409
 534	2.6650e-01	18.6925	34.078428	0.000177	1.771089	0.600061	-0.014563
 535	2.6700e-01	18.6524	33.969202	0.000266	2.656634	0.900092	-0.021845
 536	2.6750e-01	18.6155	33.859977	0.000266	2.656634	0.900092	-0.021845
 537	2.6800e-01	18.5658	33.605117	0.000620	6.198812	2.100214	-0.050972
 538	2.6850e-01	18.5401	33.677934	-0.000177	-1.771089	-0.600061	0.014563
 539	2.6900e-01	18.4824	33.677934	-0.000000	-0.000000	-0.000000	0.000000
 540	2.6950e-01	18.4455	33.896385	-0.000531	-5.313268	-1.800184	0.043690
 541	2.7000e-01	18.3829	33.131805	0.001860	18.596437	6.300643	-0.152916
 542	2.7050e-01	18.3364	33.241031	-0.000266	-2.656634	-0.900092	0.021845
 543	2.7100e-01	18.3139	33.313848	-0.000177	-1.771089	-0.600061	0.014563
 544	2.7150e-01	18.2722	33.058988	0.000620	6.198812	2.100214	-0.050972
 545	2.7200e-01	18.2417	32.913354	0.000354	3.542179	1.200123	-0.029127
 546	2.7250e-01	18.1792	32.767719	0.000354	3.542179	1.200123	-0.029127
 547	2.7300e-01	18.1583	32.876945	-0.000266	-2.656634	-0.900092	0.021845
 548	2.7350e-01	18.1134	32.876945	-0.000000	-0.000000	-0.000000	0.000000
 549	2.7400e-01	18.0829	32.804128	0.000177	1.771089	0.600061	-0.014563
 550	2.7450e-01	18.0588	32.804128	-0.000000	-0.000000	-0.000000	0.000000
 551	2.7500e-01	18.0155	32.440042	0.000886	8.855446	3.000306	-0.072817
 552	2.7550e-01	17.9369	32.476451	-0.000089	-0.885545	-0.300031	0.007282
 553	2.7600e-01	17.9225	32.221591	0.000620	6.198812	2.100214	-0.050972
 554	2.7650e-01	17.8583	31.930322	0.000708	7.084357	2.400245	-0.058254
 555	2.7700e-01	17.8230	32.148773	-0.000531	-5.313268	-1.800184	0.043690
 556	2.7750e-01	17.7990	32.075956	0.000177	1.771089	0.600061	-0.014563
 557	2.7800e-01	17.7476	31.893913	0.000443	4.427723	1.500153	-0.036409
 558	2.7850e-01	17.7171	31.857505	0.000089	0.885545	0.300031	-0.007282
 559	2.7900e-01	17.6899	31.639053	0.000531	5.313268	1.800184	-0.043690
 560	2.7950e-01	17.6401	31.566236	0.000177	1.771089	0.600061	-0.014563
 561	2.8000e-01	17.6065	31.639053	-0.000177	-1.771089	-0.600061	0.014563
 562	2.8050e-01	17.6065	31.202150	0.001063	10.626536	3.600368	-0.087381
 563	2.8100e-01	17.5359	31.566236	-0.000886	-8.855446	-3.000306	0.072817
 564	2.8150e-01	17.4813	31.165742	0.000974	9.740991	3.300337	-0.080099
 565	2.8200e-01	17.4492	31.165742	-0.000000	-0.000000	-0.000000	0.000000
 566	2.8250e-01	17.4059	31.311376	-0.000354	-3.542179	-1.200123	0.029127
 567	2.8300e-01	17.3257	30.801656	0.001240	12.397625	4.200429	-0.101944
 568	2.8350e-01	17.3193	30.947290	-0.000354	-3.542179	-1.200123	0.029127
 569	2.8400e-01	17.2744	30.728839	0.000531	5.313268	1.800184	-0.043690
 570	2.8450e-01	17.2311	30.510387	0.000531	5.313268	1.800184	-0.043690
 571	2.8500e-01	17.2086	30.401162	0.000266	2.656634	0.900092	-0.021845
 572	2.8550e-01	17.1476	30.728839	-0.000797	-7.969902	-2.700276	0.065535
 573	2.8600e-01	17.0931	30.291936	0.001063	10.626536	3.600368	-0.087381
 574	2.8650e-01	17.0819	30.219119	0.000177	1.771089	0.600061	-0.014563
 575	2.8700e-01	17.0337	30.328345	-0.000266	-2.656634	-0.900092	0.021845
 576	2.8750e-01	16.9808	30.109893	0.000531	5.313268	1.800184	-0.043690
 577	2.8800e-01	16.9423	30.000667	0.000266	2.656634	0.900092	-0.021845
 578	2.8850e-01	16.9198	30.109893	-0.000266	-2.656634	-0.900092	0.021845
 579	2.8900e-01	16.8926	29.855033	0.000620	6.198812	2.100214	-0.050972
 580	2.8950e-01	16.8396	29.527356	0.000797	7.969902	2.700276	-0.065535
 581	2.9000e-01	16.7915	29.490947	0.000089	0.885545	0.300031	-0.007282
 582	2.9050e-01	16.7177	29.600173	-0.000266	-2.656634	-0.900092	0.021845
 583	2.9100e-01	16.7033	29.490947	0.000266	2.656634	0.900092	-0.021845
 584	2.9150e-01	16.6664	28.981227	0.001240	12.397625	4.200429	-0.101944
 585	2.9200e-01	16.6535	29.199679	-0.000531	-5.313268	-1.800184	0.043690
 586	2.9250e-01	16.5862	29.163270	0.000089	0.885545	0.300031	-0.007282
 587	2.9300e-01	16.5637	29.308904	-0.000354	-3.542179	-1.200123	0.029127
 588	2.9350e-01	16.5027	28.872002	0.001063	10.626536	3.600368	-0.087381
 589	2.9400e-01	16.4995	28.944819	-0.000177	-1.771089	-0.600061	0.014563
 590	2.9450e-01	16.4322	28.762776	0.000443	4.427723	1.500153	-0.036409
 591	2.9500e-01	16.3856	28.580733	0.000443	4.427723	1.500153	-0.036409
 592	2.9550e-01	16.3584	28.325873	0.000620	6.198812	2.100214	-0.050972
 593	2.9600e-01	16.3215	28.471507	-0.000354	-3.542179	-1.200123	0.029127
 594	2.9650e-01	16.2846	28.325873	0.000354	3.542179	1.200123	-0.029127
 595	2.9700e-01	16.2300	28.107421	0.000531	5.313268	1.800184	-0.043690
 596	2.9750e-01	16.2284	27.961787	0.000354	3.542179	1.200123	-0.029127
 597	2.9800e-01	16.1803	27.998196	-0.000089	-0.885545	-0.300031	0.007282
 598	2.9850e-01	16.1354	27.779744	0.000531	5.313268	1.800184	-0.043690
 599	2.9900e-01	16.0744	27.925379	-0.000354	-3.542179	-1.200123	0.029127
 600	2.9950e-01	16.0295	27.888970	0.000089	0.885545	0.300031	-0.007282
 601	3.0000e-01	15.9942	27.415658	0.001151	11.512080	3.900398	-0.094662
 602	3.0050e-01	15.9573	27.415658	-0.000000	-0.000000	-0.000000	0.000000
 603	3.0100e-01	15.9108	27.779744	-0.000886	-8.855446	-3.000306	0.072817
 604	3.0150e-01	15.8723	27.124390	0.001594	15.939803	5.400552	-0.131071
 605	3.0200e-01	15.8370	27.488476	-0.000886	-8.855446	-3.000306	0.072817
 606	3.0250e-01	15.8017	26.942347	0.001328	13.283169	4.500460	-0.109226
 607	3.0300e-01	15.7520	26.905938	0.000089	0.885545	0.300031	-0.007282
 608	3.0350e-01	15.7135	26.833121	0.000177	1.771089	0.600061	-0.014563
 609	3.0400e-01	15.6750	26.614670	0.000531	5.313268	1.800184	-0.043690
 610	3.0450e-01	15.6172	26.869530	-0.000620	-6.198812	-2.100214	0.050972
 611	3.0500e-01	15.5819	26.942347	-0.000177	-1.771089	-0.600061	0.014563
 612	3.0550e-01	15.5530	26.396218	0.001328	13.283169	4.500460	-0.109226
 613	3.0600e-01	15.4889	26.723895	-0.000797	-7.969902	-2.700276	0.065535
 614	3.0650e-01	15.4889	26.359810	0.000886	8.855446	3.000306	-0.072817
 615	3.0700e-01	15.4584	25.850090	0.001240	12.397625	4.200429	-0.101944
 616	3.0750e-01	15.3942	26.068541	-0.000531	-5.313268	-1.800184	0.043690
 617	3.0800e-01	15.3477	26.032133	0.000089	0.885545	0.300031	-0.007282
 618	3.0850e-01	15.3060	25.886498	0.000354	3.542179	1.200123	-0.029127
 619	3.0900e-01	15.2627	26.068541	-0.000443	-4.427723	-1.500153	0.036409
 620	3.0950e-01	15.2322	25.668047	0.000974	9.740991	3.300337	-0.080099
 621	3.1000e-01	15.1905	25.631638	0.000089	0.885545	0.300031	-0.007282
 622	3.1050e-01	15.1520	25.558821	0.000177	1.771089	0.600061	-0.014563
 623	3.1100e-01	15.1231	25.085510	0.001151	11.512080	3.900398	-0.094662
 624	3.1150e-01	15.0557	25.303961	-0.000531	-5.313268	-1.800184	0.043690
 625	3.1200e-01	15.0461	25.267552	0.000089	0.885545	0.300031	-0.007282
 626	3.1250e-01	14.9916	24.721424	0.001328	13.283169	4.500460	-0.109226
 627	3.1300e-01	14.9402	24.867058	-0.000354	-3.542179	-1.200123	0.029127
 628	3.1350e-01	14.9194	24.757832	0.000266	2.656634	0.900092	-0.021845
 629	3.1400e-01	14.8632	24.830649	-0.000177	-1.771089	-0.600061	0.014563
 630	3.1450e-01	14.8375	24.685015	0.000354	3.542179	1.200123	-0.029127
 631	3.1500e-01	14.8279	24.502972	0.000443	4.427723	1.500153	-0.036409
 632	3.1550e-01	14.7477	24.357338	0.000354	3.542179	1.200123	-0.029127
 633	3.1600e-01	14.7140	24.357338	-0.000000	-0.000000	-0.000000	0.000000
 634	3.1650e-01	14.6515	24.066069	0.000708	7.084357	2.400245	-0.058254
 635	3.1700e-01	14.6194	24.248112	-0.000443	-4.427723	-1.500153	0.036409
 636	3.1750e-01	14.5841	23.665575	0.001417	14.168714	4.800490	-0.116507
 637	3.1800e-01	14.5664	23.774801	-0.000266	-2.656634	-0.900092	0.021845
 638	3.1850e-01	14.5440	23.738392	0.000089	0.885545	0.300031	-0.007282
 639	3.1900e-01	14.4958	23.337898	0.000974	9.740991	3.300337	-0.080099
 640	3.1950e-01	14.4333	23.738392	-0.000974	-9.740991	-3.300337	0.080099
 641	3.2000e-01	14.3964	23.447124	0.000708	7.084357	2.400245	-0.058254
 642	3.2050e-01	14.3515	23.301489	0.000354	3.542179	1.200123	-0.029127
 643	3.2100e-01	14.3114	23.192264	0.000266	2.656634	0.900092	-0.021845
 644	3.2150e-01	14.2889	23.447124	-0.000620	-6.198812	-2.100214	0.050972
 645	3.2200e-01	14.2472	22.718952	0.001771	17.710893	6.000613	-0.145634
 646	3.2250e-01	14.1959	22.646135	0.000177	1.771089	0.600061	-0.014563
 647	3.2300e-01	14.1477	22.718952	-0.000177	-1.771089	-0.600061	0.014563
 648	3.2350e-01	14.1060	22.828178	-0.000266	-2.656634	-0.900092	0.021845
 649	3.2400e-01	14.0723	22.464092	0.000886	8.855446	3.000306	-0.072817
 650	3.2450e-01	14.0451	22.027189	0.001063	10.626536	3.600368	-0.087381
 651	3.2500e-01	13.9873	22.282049	-0.000620	-6.198812	-2.100214	0.050972
 652	3.2550e-01	13.9616	22.136415	0.000354	3.542179	1.200123	-0.029127
 653	3.2600e-01	13.9279	22.063598	0.000177	1.771089	0.600061	-0.014563
 654	3.2650e-01	13.8911	21.917963	0.000354	3.542179	1.200123	-0.029127
 655	3.2700e-01	13.8333	21.917963	-0.000000	-0.000000	-0.000000	0.000000
 656	3.2750e-01	13.8012	21.772329	0.000354	3.542179	1.200123	-0.029127
 657	3.2800e-01	13.7563	21.845146	-0.000177	-1.771089	-0.600061	0.014563
 658	3.2850e-01	13.7210	21.226200	0.001505	15.054259	5.100521	-0.123789
 659	3.2900e-01	13.6600	21.371835	-0.000354	-3.542179	-1.200123	0.029127
 660	3.2950e-01	13.6280	21.517469	-0.000354	-3.542179	-1.200123	0.029127
 661	3.3000e-01	13.5526	21.189792	0.000797	7.969902	2.700276	-0.065535
 662	3.3050e-01	13.5718	20.934932	-0.000620	-6.198812	-2.100214	-0.050972
 663	3.3100e-01	13.5125	20.934932	-0.000000	-0.000000	-0.000000	0.000000
 664	3.3150e-01	13.4659	20.752889	0.000443	4.427723	1.500153	-0.036409
 665	3.3200e-01	13.4403	20.862115	-0.000266	-2.656634	-0.900092	0.021845
 666	3.3250e-01	13.4274	20.607255	0.000620	6.198812	2.100214	-0.050972
 667	3.3300e-01	13.3873	20.498029	0.000266	2.656634	0.900092	-0.021845
 668	3.3350e-01	13.3183	20.425212	0.000177	1.771089	0.600061	-0.014563
 669	3.3400e-01	13.2798	20.243169	0.000443	4.427723	1.500153	-0.036409
 670	3.3450e-01	13.2189	20.097534	0.000354	3.542179	1.200123	-0.029127
 671	3.3500e-01	13.1996	20.061126	0.000089	0.885545	0.300031	-0.007282
 672	3.3550e-01	13.1531	19.915492	0.000354	3.542179	1.200123	-0.029127
 673	3.3600e-01	13.1002	19.879083	0.000089	0.885545	0.300031	-0.007282
 674	3.3650e-01	13.0601	19.514997	0.000886	8.855446	3.000306	-0.072817
 675	3.3700e-01	13.0280	19.733449	-0.000531	-5.313268	-1.800184	0.043690
 676	3.3750e-01	13.0440	19.697040	-0.000089	-0.885545	-0.300031	-0.007282
 677	3.3800e-01	12.9558	19.296546	0.000974	9.740991	3.300337	-0.080099
 678	3.3850e-01	12.9365	19.223729	0.000177	1.771089	0.600061	-0.014563
 679	3.3900e-01	12.9189	18.714009	0.001240	12.397625	4.200429	-0.101944
 680	3.3950e-01	12.8403	19.114503	-0.000974	-9.740991	-3.300337	0.080099
 681	3.4000e-01	12.7905	18.641191	0.001151	11.512080	3.900398	-0.094662
 682	3.4050e-01	12.7793	18.932460	-0.000708	-7.084357	-2.400245	0.058254
 683	3.4100e-01	12.7633	19.078094	-0.000354	-3.542179	-1.200123	0.029127
 684	3.4150e-01	12.7039	18.677600	0.000974	9.740991	3.300337	-0.080099
 685	3.4200e-01	12.6221	18.349923	0.000797	7.969902	2.700276	-0.065535
 686	3.4250e-01	12.6061	18.459149	-0.000266	-2.656634	-0.900092	0.021845
 687	3.4300e-01	12.5307	18.422740	0.000089	0.885545	0.300031	-0.007282
 688	3.4350e-01	12.5291	18.095063	0.000797	7.969902	2.700276	-0.065535
 689	3.4400e-01	12.5066	17.840203	0.000620	6.198812	2.100214	-0.050972
 690	3.4450e-01	12.4200	18.022246	-0.000443	-4.427723	-1.500153	0.036409
 691	3.4500e-01	12.4023	17.439708	0.001417	14.168714	4.800490	-0.116507
 692	3.4550e-01	12.3847	18.204288	-0.001860	-18.596437	-6.300643	0.152916
 693	3.4600e-01	12.3269	17.257665	0.002302	23.024160	7.800797	-0.189325
 694	3.4650e-01	12.2435	17.257665	-0.000000	-0.000000	-0.000000	0.000000
 695	3.4700e-01	12.2243	17.439708	-0.000443	-4.427723	-1.500153	0.036409
 696	3.4750e-01	12.2194	17.112031	0.000797	7.969902	2.700276	-0.065535
 697	3.4800e-01	12.1617	17.039214	0.000177	1.771089	0.600061	-0.014563
 698	3.4850e-01	12.1232	16.966397	0.000177	1.771089	0.600061	-0.014563
 699	3.4900e-01	12.0863	16.675128	0.000708	7.084357	2.400245	-0.058254
 700	3.4950e-01	12.0398	16.857171	-0.000443	-4.427723	-1.500153	0.036409
 701	3.5000e-01	12.0205	16.493085	0.000886	8.855446	3.000306	-0.072817
 702	3.5050e-01	11.9676	16.638720	-0.000354	-3.542179	-1.200123	0.029127
 703	3.5100e-01	11.8922	16.638720	-0.000000	-0.000000	-0.000000	0.000000
 704	3.5150e-01	11.8777	16.092591	0.001328	13.283169	4.500460	-0.109226
 705	3.5200e-01	11.8569	16.238225	-0.000354	-3.542179	-1.200123	0.029127
 706	3.5250e-01	11.8039	15.801322	0.001063	10.626536	3.600368	-0.087381
 707	3.5300e-01	11.7783	15.946957	-0.000354	-3.542179	-1.200123	0.029127
 708	3.5350e-01	11.7221	15.510054	0.001063	10.626536	3.600368	-0.087381
 709	3.5400e-01	11.6724	15.692097	-0.000443	-4.427723	-1.500153	0.036409
 710	3.5450e-01	11.6259	15.291602	0.000974	9.740991	3.300337	-0.080099
 711	3.5500e-01	11.5553	15.364419	-0.000177	-1.771089	-0.600061	0.014563
 712	3.5550e-01	11.5665	15.364419	0.000000	0.000000	0.000000	0.000000
 713	3.5600e-01	11.5007	14.963925	0.000974	9.740991	3.300337	-0.080099
 714	3.5650e-01	11.4911	15.328011	-0.000886	-8.855446	-3.000306	0.072817
 715	3.5700e-01	11.4478	15.182377	0.000354	3.542179	1.200123	-0.029127
 716	3.5750e-01	11.3949	14.709065	0.001151	11.512080	3.900398	-0.094662
 717	3.5800e-01	11.3451	14.854699	-0.000354	-3.542179	-1.200123	0.029127
 718	3.5850e-01	11.3259	14.527022	0.000797	7.969902	2.700276	-0.065535
 719	3.5900e-01	11.2906	14.672657	-0.000354	-3.542179	-1.200123	0.029127
 720	3.5950e-01	11.2713	14.126528	0.001328	13.283169	4.500460	-0.109226
 721	3.6000e-01	11.1847	14.417796	-0.000708	-7.084357	-2.400245	0.058254
 722	3.6050e-01	11.1558	13.980894	0.001063	10.626536	3.600368	-0.087381
 723	3.6100e-01	11.1221	14.017302	-0.000089	-0.885545	-0.300031	0.007282
 724	3.6150e-01	11.0740	13.871668	0.000354	3.542179	1.200123	-0.029127
 725	3.6200e-01	11.0467	13.798851	0.000177	1.771089	0.600061	-0.014563
 726	3.6250e-01	10.9970	13.762442	0.000089	0.885545	0.300031	-0.007282
 727	3.6300e-01	10.9505	13.653216	0.000266	2.656634	0.900092	-0.021845
 728	3.6350e-01	10.9104	12.852228	0.001948	19.481982	6.600674	-0.160198
 729	3.6400e-01	10.8831	13.143496	-0.000708	-7.084357	-2.400245	0.058254
 730	3.6450e-01	10.8222	12.997862	0.000354	3.542179	1.200123	-0.029127
 731	3.6500e-01	10.8093	13.179905	-0.000443	-4.427723	-1.500153	0.036409
 732	3.6550e-01	10.7644	12.488142	0.001683	16.825348	5.700582	-0.138353
 733	3.6600e-01	10.7163	12.852228	-0.000886	-8.855446	-3.000306	0.072817
 734	3.6650e-01	10.6457	12.597368	0.000620	6.198812	2.100214	-0.050972
 735	3.6700e-01	10.6425	12.779411	-0.000443	-4.427723	-1.500153	0.036409
 736	3.6750e-01	10.5992	12.415325	0.000886	8.855446	3.000306	-0.072817
 737	3.6800e-01	10.5671	11.759970	0.001594	15.939803	5.400552	-0.131071
 738	3.6850e-01	10.5174	12.160465	-0.000974	-9.740991	-3.300337	0.080099
 739	3.6900e-01	10.4724	12.051239	0.000266	2.656634	0.900092	-0.021845
 740	3.6950e-01	10.4580	11.832788	0.000531	5.313268	1.800184	-0.043690
 741	3.7000e-01	10.3874	11.942013	-0.000266	-2.656634	-0.900092	0.021845
 742	3.7050e-01	10.3521	11.687153	0.000620	6.198812	2.100214	-0.050972
 743	3.7100e-01	10.3489	11.468702	0.000531	5.313268	1.800184	-0.043690
 744	3.7150e-01	10.2960	11.614336	-0.000354	-3.542179	-1.200123	0.029127
 745	3.7200e-01	10.2334	11.068207	0.001328	13.283169	4.500460	-0.109226
 746	3.7250e-01	10.1821	11.068207	-0.000000	-0.000000	-0.000000	0.000000
 747	3.7300e-01	10.1901	11.104616	0.000089	0.885545	0.300031	0.007282
 748	3.7350e-01	10.1371	10.776939	0.000797	7.969902	2.700276	-0.065535
 749	3.7400e-01	10.0794	10.813347	-0.000089	-0.885545	-0.300031	0.007282
 750	3.7450e-01	10.0168	10.667713	0.000354	3.542179	1.200123	-0.029127
 751	3.7500e-01	10.0136	10.303627	0.000886	8.855446	3.000306	-0.072817
 752	3.7550e-01	9.9639	10.558487	-0.000620	-6.198812	-2.100214	0.050972
 753	3.7600e-01	9.9158	10.558487	-0.000000	-0.000000	-0.000000	0.000000
 754	3.7650e-01	9.8644	10.048767	0.001240	12.397625	4.200429	-0.101944
 755	3.7700e-01	9.8259	9.830316	0.000531	5.313268	1.800184	-0.043690
 756	3.7750e-01	9.7906	9.793907	0.000089	0.885545	0.300031	-0.007282
 757	3.7800e-01	9.7473	9.684681	0.000266	2.656634	0.900092	-0.021845
 758	3.7850e-01	9.7120	9.502639	0.000443	4.427723	1.500153	-0.036409
 759	3.7900e-01	9.7024	9.539047	-0.000089	-0.885545	-0.300031	0.007282
 760	3.7950e-01	9.6511	9.284187	0.000620	6.198812	2.100214	-0.050972
 761	3.8000e-01	9.6270	9.357004	-0.000177	-1.771089	-0.600061	0.014563
 762	3.8050e-01	9.5548	8.883693	0.001151	11.512080	3.900398	-0.094662
 763	3.8100e-01	9.5051	8.847284	0.000089	0.885545	0.300031	-0.007282
 764	3.8150e-01	9.4746	8.774467	0.000177	1.771089	0.600061	-0.014563
 765	3.8200e-01	9.4297	8.228338	0.001328	13.283169	4.500460	-0.109226
 766	3.8250e-01	9.4185	8.956510	-0.001771	-17.710893	-6.000613	0.145634
 767	3.8300e-01	9.3719	8.483198	0.001151	11.512080	3.900398	-0.094662
 768	3.8350e-01	9.3463	8.446790	0.000089	0.885545	0.300031	-0.007282
 769	3.8400e-01	9.2789	7.973478	0.001151	11.512080	3.900398	-0.094662
 770	3.8450e-01	9.2548	8.119113	-0.000354	-3.542179	-1.200123	0.029127
 771	3.8500e-01	9.2099	7.864253	0.000620	6.198812	2.100214	-0.050972
 772	3.8550e-01	9.1265	7.827844	0.000089	0.885545	0.300031	-0.007282
 773	3.8600e-01	9.1281	7.645801	-0.000443	-4.427723	-1.500153	-0.036409
 774	3.8650e-01	9.0832	7.354533	0.000708	7.084357	2.400245	-0.058254
 775	3.8700e-01	8.9933	7.572984	-0.000531	-5.313268	-1.800184	0.043690
 776	3.8750e-01	8.9933	7.281715	0.000708	7.084357	2.400245	-0.058254
 777	3.8800e-01	8.9195	6.990447	0.000708	7.084357	2.400245	-0.058254
 778	3.8850e-01	8.9035	6.844812	0.000354	3.542179	1.200123	-0.029127
 779	3.8900e-01	8.8874	6.808404	0.000089	0.885545	0.300031	-0.007282
 780	3.8950e-01	8.8104	6.480727	0.000797	7.969902	2.700276	-0.065535
 781	3.9000e-01	8.8121	6.298684	-0.000443	-4.427723	-1.500153	-0.036409
 782	3.9050e-01	8.7559	6.699178	-0.000974	-9.740991	-3.300337	0.080099
 783	3.9100e-01	8.7318	6.262275	0.001063	10.626536	3.600368	-0.087381
 784	3.9150e-01	8.6982	5.934598	0.000797	7.969902	2.700276	-0.065535
 785	3.9200e-01	8.6404	5.861781	0.000177	1.771089	0.600061	-0.014563
 786	3.9250e-01	8.5987	5.788964	0.000177	1.771089	0.600061	-0.014563
 787	3.9300e-01	8.5538	5.679738	0.000266	2.656634	0.900092	-0.021845
 788	3.9350e-01	8.5008	5.679738	-0.000000	-0.000000	-0.000000	0.000000
 789	3.9400e-01	8.4511	5.388469	0.000708	7.084357	2.400245	-0.058254
 790	3.9450e-01	8.4383	5.279244	0.000266	2.656634	0.900092	-0.021845
 791	3.9500e-01	8.4270	5.133609	0.000354	3.542179	1.200123	-0.029127
 792	3.9550e-01	8.3500	5.352061	-0.000531	-5.313268	-1.800184	0.043690
 793	3.9600e-01	8.3019	4.696706	0.001594	15.939803	5.400552	-0.131071
 794	3.9650e-01	8.2634	4.733115	-0.000089	-0.885545	-0.300031	0.007282
 795	3.9700e-01	8.2345	4.696706	0.000089	0.885545	0.300031	-0.007282
 796	3.9750e-01	8.2233	4.660298	0.000089	0.885545	0.300031	-0.007282
 797	3.9800e-01	8.1655	4.259804	0.000974	9.740991	3.300337	-0.080099
 798	3.9850e-01	8.1206	4.259804	-0.000000	-0.000000	-0.000000	0.000000
 799	3.9900e-01	8.0885	4.150578	0.000266	2.656634	0.900092	-0.021845
 800	3.9950e-01	8.0404	3.932126	0.000531	5.313268	1.800184	-0.043690
 801	4.0000e-01	8.0035	3.822901	0.000266	2.656634	0.900092	-0.021845
 802	4.0050e-01	7.9554	3.750083	0.000177	1.771089	0.600061	-0.014563
 803	4.0100e-01	7.9057	3.495223	0.000620	6.198812	2.100214	-0.050972
 804	4.0150e-01	7.8591	3.713675	-0.000531	-5.313268	-1.800184	0.043690
 805	4.0200e-01	7.8367	3.094729	0.001505	15.054259	5.100521	-0.123789
 806	4.0250e-01	7.7886	3.131138	-0.000089	-0.885545	-0.300031	0.007282
 807	4.0300e-01	7.7613	2.912686	0.000531	5.313268	1.800184	-0.043690
 808	4.0350e-01	7.7500	2.839869	0.000177	1.771089	0.600061	-0.014563
 809	4.0400e-01	7.6811	2.475783	0.000886	8.855446	3.000306	-0.072817
 810	4.0450e-01	7.6522	2.621418	-0.000354	-3.542179	-1.200123	0.029127
 811	4.0500e-01	7.5993	2.439375	0.000443	4.427723	1.500153	-0.036409
 812	4.0550e-01	7.5463	2.402966	0.000089	0.885545	0.300031	-0.007282
 813	4.0600e-01	7.4998	1.929655	0.001151	11.512080	3.900398	-0.094662
 814	4.0650e-01	7.4645	2.184515	-0.000620	-6.198812	-2.100214	0.050972
 815	4.0700e-01	7.4565	2.184515	-0.000000	-0.000000	-0.000000	0.000000
 816	4.0750e-01	7.3875	1.456343	0.001771	17.710893	6.000613	-0.145634
 817	4.0800e-01	7.3378	1.347117	0.000266	2.656634	0.900092	-0.021845
 818	4.0850e-01	7.3137	1.274300	0.000177	1.771089	0.600061	-0.014563
 819	4.0900e-01	7.2816	1.201483	0.000177	1.771089	0.600061	-0.014563
 820	4.0950e-01	7.2142	1.310709	-0.000266	-2.656634	-0.900092	0.021845
 821	4.1000e-01	7.1886	0.946623	0.000886	8.855446	3.000306	-0.072817
 822	4.1050e-01	7.1436	1.201483	-0.000620	-6.198812	-2.100214	0.050972
 823	4.1100e-01	7.0971	0.873806	0.000797	7.969902	2.700276	-0.065535
 824	4.1150e-01	7.0811	0.436903	0.001063	10.626536	3.600368	-0.087381
 825	4.1200e-01	7.0346	0.655354	-0.000531	-5.313268	-1.800184	0.043690
 826	4.1250e-01	6.9736	0.436903	0.000531	5.313268	1.800184	-0.043690
 827	4.1300e-01	6.9640	0.000000	0.001063	10.626536	3.600368	-0.087381
 828	4.1350e-01	6.9126	-0.182043	0.000443	4.427723	1.500153	-0.036409
 829	4.1400e-01	6.8757	0.327677	-0.001240	-12.397625	-4.200429	0.101944
 830	4.1450e-01	6.8164	0.145634	0.000443	4.427723	1.500153	-0.036409
 831	4.1500e-01	6.8196	-0.400494	-0.001328	-13.283169	-4.500460	-0.109226
 832	4.1550e-01	6.7554	-1.019440	0.001505	15.054259	5.100521	-0.123789
 833	4.1600e-01	6.7185	-0.436903	-0.001417	-14.168714	-4.800490	0.116507
 834	4.1650e-01	6.6576	-0.946623	0.001240	12.397625	4.200429	-0.101944
 835	4.1700e-01	6.6335	-1.019440	0.000177	1.771089	0.600061	-0.014563
 836	4.1750e-01	6.5886	-1.165074	0.000354	3.542179	1.200123	-0.029127
 837	4.1800e-01	6.5469	-1.274300	0.000266	2.656634	0.900092	-0.021845
 838	4.1850e-01	6.4923	-1.492752	0.000531	5.313268	1.800184	-0.043690
 839	4.1900e-01	6.4923	-1.419935	-0.000177	-1.771089	-0.600061	0.014563
 840	4.1950e-01	6.4811	-1.638386	0.000531	5.313268	1.800184	-0.043690
 841	4.2000e-01	6.4009	-1.674795	0.000089	0.885545	0.300031	-0.007282
 842	4.2050e-01	6.3560	-2.184515	0.001240	12.397625	4.200429	-0.101944
 843	4.2100e-01	6.2886	-1.929655	-0.000620	-6.198812	-2.100214	0.050972
 844	4.2150e-01	6.2870	-2.475783	0.001328	13.283169	4.500460	-0.109226
 845	4.2200e-01	6.2629	-2.257332	-0.000531	-5.313268	-1.800184	0.043690
 846	4.2250e-01	6.1972	-2.730643	0.001151	11.512080	3.900398	-0.094662
 847	4.2300e-01	6.1603	-2.694235	-0.000089	-0.885545	-0.300031	0.007282
 848	4.2350e-01	6.1218	-2.548600	-0.000354	-3.542179	-1.200123	0.029127
 849	4.2400e-01	6.0961	-2.985503	0.001063	10.626536	3.600368	-0.087381
 850	4.2450e-01	6.0431	-3.385998	0.000974	9.740991	3.300337	-0.080099
 851	4.2500e-01	5.9950	-3.422406	0.000089	0.885545	0.300031	-0.007282
 852	4.2550e-01	5.9501	-3.313181	-0.000266	-2.656634	-0.900092	0.021845
 853	4.2600e-01	5.9357	-3.240363	-0.000177	-1.771089	-0.600061	0.014563
 854	4.2650e-01	5.9164	-4.114169	0.002125	21.253071	7.200735	-0.174761
 855	4.2700e-01	5.8394	-3.713675	-0.000974	-9.740991	-3.300337	0.080099
 856	4.2750e-01	5.8202	-4.077761	0.000886	8.855446	3.000306	-0.072817
 857	4.2800e-01	5.7528	-4.004943	-0.000177	-1.771089	-0.600061	0.014563
 858	4.2850e-01	5.6998	-4.478255	0.001151	11.512080	3.900398	-0.094662
 859	4.2900e-01	5.6325	-4.623889	0.000354	3.542179	1.200123	-0.029127
 860	4.2950e-01	5.6116	-4.769524	0.000354	3.542179	1.200123	-0.029127
 861	4.3000e-01	5.5875	-4.915158	0.000354	3.542179	1.200123	-0.029127
 862	4.3050e-01	5.5234	-4.805932	-0.000266	-2.656634	-0.900092	0.021845
 863	4.3100e-01	5.5234	-5.461287	0.001594	15.939803	5.400552	-0.131071
 864	4.3150e-01	5.4704	-5.242835	-0.000531	-5.313268	-1.800184	0.043690
 865	4.3200e-01	5.3982	-5.461287	0.000531	5.313268	1.800184	-0.043690
 866	4.3250e-01	5.3950	-5.534104	0.000177	1.771089	0.600061	-0.014563
 867	4.3300e-01	5.3581	-5.497695	-0.000089	-0.885545	-0.300031	0.007282
 868	4.3350e-01	5.3068	-5.825372	0.000797	7.969902	2.700276	-0.065535
 869	4.3400e-01	5.2988	-5.825372	-0.000000	-0.000000	-0.000000	0.000000
 870	4.3450e-01	5.2651	-6.225867	0.000974	9.740991	3.300337	-0.080099
 871	4.3500e-01	5.2250	-6.116641	-0.000266	-2.656634	-0.900092	0.021845
 872	4.3550e-01	5.1688	-6.517135	0.000974	9.740991	3.300337	-0.080099
 873	4.3600e-01	5.1127	-6.735587	0.000531	5.313268	1.800184	-0.043690
 874	4.3650e-01	5.0501	-6.662770	-0.000177	-1.771089	-0.600061	0.014563
 875	4.3700e-01	5.0581	-7.026855	-0.000886	-8.855446	-3.000306	-0.072817
 876	4.3750e-01	5.0100	-7.099673	0.000177	1.771089	0.600061	-0.014563
 877	4.3800e-01	4.9442	-7.536575	0.001063	10.626536	3.600368	-0.087381
 878	4.3850e-01	4.9346	-7.136081	-0.000974	-9.740991	-3.300337	0.080099
 879	4.3900e-01	4.8672	-7.572984	0.001063	10.626536	3.600368	-0.087381
 880	4.3950e-01	4.8608	-7.827844	0.000620	6.198812	2.100214	-0.050972
 881	4.4000e-01	4.8079	-7.900661	0.000177	1.771089	0.600061	-0.014563
 882	4.4050e-01	4.7614	-8.337564	0.001063	10.626536	3.600368	-0.087381
 883	4.4100e-01	4.7116	-8.191930	-0.000354	-3.542179	-1.200123	0.029127
 884	4.4150e-01	4.6635	-8.228338	0.000089	0.885545	0.300031	-0.007282
 885	4.4200e-01	4.6426	-8.483198	0.000620	6.198812	2.100214	-0.050972
 886	4.4250e-01	4.5929	-8.337564	-0.000354	-3.542179	-1.200123	0.029127
 887	4.4300e-01	4.5624	-9.247779	0.002214	22.138616	7.500766	-0.182043
 888	4.4350e-01	4.5223	-8.628833	-0.001505	-15.054259	-5.100521	0.123789
 889	4.4400e-01	4.4886	-9.247779	0.001505	15.054259	5.100521	-0.123789
 890	4.4450e-01	4.4293	-9.138553	-0.000266	-2.656634	-0.900092	0.021845
 891	4.4500e-01	4.3699	-9.429821	0.000708	7.084357	2.400245	-0.058254
 892	4.4550e-01	4.3475	-9.284187	-0.000354	-3.542179	-1.200123	0.029127
 893	4.4600e-01	4.3106	-9.721090	0.001063	10.626536	3.600368	-0.087381
 894	4.4650e-01	4.2817	-9.830316	0.000266	2.656634	0.900092	-0.021845
 895	4.4700e-01	4.2416	-10.194402	0.000886	8.855446	3.000306	-0.072817
 896	4.4750e-01	4.1983	-9.975950	-0.000531	-5.313268	-1.800184	0.043690
 897	4.4800e-01	4.1710	-10.558487	0.001417	14.168714	4.800490	-0.116507
 898	4.4850e-01	4.1068	-10.412853	-0.000354	-3.542179	-1.200123	0.029127
 899	4.4900e-01	4.1052	-10.485670	0.000177	1.771089	0.600061	-0.014563
 900	4.4950e-01	4.0362	-10.995390	0.001240	12.397625	4.200429	-0.101944
 901	4.5000e-01	3.9705	-10.995390	-0.000000	-0.000000	-0.000000	0.000000
 902	4.5050e-01	3.9512	-11.177433	0.000443	4.427723	1.500153	-0.036409
 903	4.5100e-01	3.9047	-11.468702	0.000708	7.084357	2.400245	-0.058254
 904	4.5150e-01	3.8790	-11.213842	-0.000620	-6.198812	-2.100214	0.050972
 905	4.5200e-01	3.8421	-11.905605	0.001683	16.825348	5.700582	-0.138353
 906	4.5250e-01	3.8101	-11.614336	-0.000708	-7.084357	-2.400245	0.058254
 907	4.5300e-01	3.7395	-12.014830	0.000974	9.740991	3.300337	-0.080099
 908	4.5350e-01	3.7090	-12.160465	0.000354	3.542179	1.200123	-0.029127
 909	4.5400e-01	3.6817	-12.233282	0.000177	1.771089	0.600061	-0.014563
 910	4.5450e-01	3.6272	-12.342508	0.000266	2.656634	0.900092	-0.021845
 911	4.5500e-01	3.5839	-12.888636	0.001328	13.283169	4.500460	-0.109226
 912	4.5550e-01	3.5309	-12.670185	-0.000531	-5.313268	-1.800184	0.043690
 913	4.5600e-01	3.5181	-13.070679	0.000974	9.740991	3.300337	-0.080099
 914	4.5650e-01	3.4651	-13.143496	0.000177	1.771089	0.600061	-0.014563
 915	4.5700e-01	3.4555	-13.216313	0.000177	1.771089	0.600061	-0.014563
 916	4.5750e-01	3.3962	-13.252722	0.000089	0.885545	0.300031	-0.007282
 917	4.5800e-01	3.3641	-13.543991	0.000708	7.084357	2.400245	-0.058254
 918	4.5850e-01	3.3031	-13.580399	0.000089	0.885545	0.300031	-0.007282
 919	4.5900e-01	3.2678	-13.762442	0.000443	4.427723	1.500153	-0.036409
 920	4.5950e-01	3.2502	-14.344979	0.001417	14.168714	4.800490	-0.116507
 921	4.6000e-01	3.1924	-13.798851	-0.001328	-13.283169	-4.500460	0.109226
 922	4.6050e-01	3.1635	-14.490614	0.001683	16.825348	5.700582	-0.138353
 923	4.6100e-01	3.1427	-14.963925	0.001151	11.512080	3.900398	-0.094662
 924	4.6150e-01	3.0753	-14.636248	-0.000797	-7.969902	-2.700276	0.065535
 925	4.6200e-01	3.0304	-15.400828	0.001860	18.596437	6.300643	-0.152916
 926	4.6250e-01	3.0015	-14.963925	-0.001063	-10.626536	-3.600368	0.087381
 927	4.6300e-01	2.9566	-15.291602	0.000797	7.969902	2.700276	-0.065535
 928	4.6350e-01	2.8828	-15.182377	-0.000266	-2.656634	-0.900092	0.021845
 929	4.6400e-01	2.8587	-15.437237	0.000620	6.198812	2.100214	-0.050972
 930	4.6450e-01	2.8539	-15.510054	0.000177	1.771089	0.600061	-0.014563
 931	4.6500e-01	2.7882	-16.311042	0.001948	19.481982	6.600674	-0.160198
 932	4.6550e-01	2.7625	-16.092591	-0.000531	-5.313268	-1.800184	0.043690
 933	4.6600e-01	2.7079	-16.383860	0.000708	7.084357	2.400245	-0.058254
 934	4.6650e-01	2.6678	-16.056182	-0.000797	-7.969902	-2.700276	0.065535
 935	4.6700e-01	2.6470	-16.711537	0.001594	15.939803	5.400552	-0.131071
 936	4.6750e-01	2.6053	-16.820763	0.000266	2.656634	0.900092	-0.021845
 937	4.6800e-01	2.5716	-17.366891	0.001328	13.283169	4.500460	-0.109226
 938	4.6850e-01	2.5395	-16.893580	-0.001151	-11.512080	-3.900398	0.094662
 939	4.6900e-01	2.4737	-17.439708	0.001328	13.283169	4.500460	-0.109226
 940	4.6950e-01	2.3903	-17.658160	0.000531	5.313268	1.800184	-0.043690
 941	4.7000e-01	2.4047	-17.840203	-0.000443	-4.427723	-1.500153	-0.036409
 942	4.7050e-01	2.3502	-17.694568	-0.000354	-3.542179	-1.200123	0.029127
 943	4.7100e-01	2.3277	-17.949428	0.000620	6.198812	2.100214	-0.050972
 944	4.7150e-01	2.3053	-18.167880	0.000531	5.313268	1.800184	-0.043690
 945	4.7200e-01	2.2299	-18.459149	0.000708	7.084357	2.400245	-0.058254
 946	4.7250e-01	2.1834	-18.277106	-0.000443	-4.427723	-1.500153	0.036409
 947	4.7300e-01	2.1176	-18.531966	0.000620	6.198812	2.100214	-0.050972
 948	4.7350e-01	2.0903	-19.296546	0.001860	18.596437	6.300643	-0.152916
 949	4.7400e-01	2.0374	-18.823234	-0.001151	-11.512080	-3.900398	0.094662
 950	4.7450e-01	2.0374	-19.041686	0.000531	5.313268	1.800184	-0.043690
 951	4.7500e-01	2.0053	-20.097534	0.002568	25.680794	8.700889	-0.211170
 952	4.7550e-01	1.9604	-19.442180	-0.001594	-15.939803	-5.400552	0.131071
 953	4.7600e-01	1.8962	-19.806266	0.000886	8.855446	3.000306	-0.072817
 954	4.7650e-01	1.8545	-20.097534	0.000708	7.084357	2.400245	-0.058254
 955	4.7700e-01	1.8449	-20.061126	-0.000089	-0.885545	-0.300031	0.007282
 956	4.7750e-01	1.7951	-20.243169	0.000443	4.427723	1.500153	-0.036409
 957	4.7800e-01	1.7711	-20.498029	0.000620	6.198812	2.100214	-0.050972
 958	4.7850e-01	1.7438	-20.498029	-0.000000	-0.000000	-0.000000	0.000000
 959	4.7900e-01	1.6684	-20.789297	0.000708	7.084357	2.400245	-0.058254
 960	4.7950e-01	1.6604	-20.971340	0.000443	4.427723	1.500153	-0.036409
 961	4.8000e-01	1.5866	-21.044157	0.000177	1.771089	0.600061	-0.014563
 962	4.8050e-01	1.5465	-21.371835	0.000797	7.969902	2.700276	-0.065535
 963	4.8100e-01	1.5192	-21.590286	0.000531	5.313268	1.800184	-0.043690
 964	4.8150e-01	1.4903	-22.172823	0.001417	14.168714	4.800490	-0.116507
 965	4.8200e-01	1.4053	-21.772329	-0.000974	-9.740991	-3.300337	0.080099
 966	4.8250e-01	1.4101	-22.209232	-0.001063	-10.626536	-3.600368	-0.087381
 967	4.8300e-01	1.3716	-22.500501	0.000708	7.084357	2.400245	-0.058254
 968	4.8350e-01	1.3074	-22.536909	0.000089	0.885545	0.300031	-0.007282
 969	4.8400e-01	1.2770	-22.864586	0.000797	7.969902	2.700276	-0.065535
 970	4.8450e-01	1.2401	-22.828178	-0.000089	-0.885545	-0.300031	0.007282
 971	4.8500e-01	1.1887	-23.301489	0.001151	11.512080	3.900398	-0.094662
 972	4.8550e-01	1.1647	-23.228672	-0.000177	-1.771089	-0.600061	0.014563
 973	4.8600e-01	1.1085	-23.592758	0.000886	8.855446	3.000306	-0.072817
 974	4.8650e-01	1.0620	-23.410715	-0.000443	-4.427723	-1.500153	0.036409
 975	4.8700e-01	1.0139	-23.665575	0.000620	6.198812	2.100214	-0.050972
 976	4.8750e-01	0.9609	-24.102478	0.001063	10.626536	3.600368	-0.087381
 977	4.8800e-01	0.9529	-24.284521	0.000443	4.427723	1.500153	-0.036409
 978	4.8850e-01	0.9481	-24.175295	-0.000266	-2.656634	-0.900092	0.021845
 979	4.8900e-01	0.8743	-24.721424	0.001328	13.283169	4.500460	-0.109226
 980	4.8950e-01	0.8278	-24.976284	0.000620	6.198812	2.100214	-0.050972
 981	4.9000e-01	0.7492	-24.648607	-0.000797	-7.969902	-2.700276	0.065535
 982	4.9050e-01	0.7668	-25.194735	-0.001328	-13.283169	-4.500460	-0.109226
 983	4.9100e-01	0.7235	-25.085510	-0.000266	-2.656634	-0.900092	0.021845
 984	4.9150e-01	0.7075	-25.340370	0.000620	6.198812	2.100214	-0.050972
 985	4.9200e-01	0.6449	-25.558821	0.000531	5.313268	1.800184	-0.043690
 986	4.9250e-01	0.6128	-25.922907	0.000886	8.855446	3.000306	-0.072817
 987	4.9300e-01	0.5599	-26.250584	0.000797	7.969902	2.700276	-0.065535
 988	4.9350e-01	0.5021	-26.505444	0.000620	6.198812	2.100214	-0.050972
 989	4.9400e-01	0.4604	-26.614670	0.000266	2.656634	0.900092	-0.021845
 990	4.9450e-01	0.4476	-26.578261	-0.000089	-0.885545	-0.300031	0.007282
 991	4.9500e-01	0.3978	-26.942347	0.000886	8.855446	3.000306	-0.072817
 992	4.9550e-01	0.3176	-27.087981	0.000354	3.542179	1.200123	-0.029127
 993	4.9600e-01	0.3337	-27.270024	-0.000443	-4.427723	-1.500153	-0.036409
 994	4.9650e-01	0.2936	-27.634110	0.000886	8.855446	3.000306	-0.072817
 995	4.9700e-01	0.2166	-27.670518	0.000089	0.885545	0.300031	-0.007282
 996	4.9750e-01	0.2037	-27.888970	0.000531	5.313268	1.800184	-0.043690
 997	4.9800e-01	0.1396	-27.852561	-0.000089	-0.885545	-0.300031	0.007282
 998	4.9850e-01	0.0995	-28.471507	0.001505	15.054259	5.100521	-0.123789
 999	4.9900e-01	0.0866	-28.507916	0.000089	0.885545	0.300031	-0.007282
1000	4.9950e-01	0.0080	-28.872002	0.000886	8.855446	3.000306	-0.072817
1001	5.0000e-01	0.0144	-28.726367	0.000886	8.855446	3.000306	0.029127

PMax (uC/cm2):	7.28e+01
Pr (uC/cm2):	7.54e+00
-Pr (uC/cm2):	0.00e+00
PLoss (uC/cm2):	0.00e+00
C (Max-Eff) (nF):	3.64e-01
K (Eff):	1.23e+03
Vert. (+/-Pr) Shift (uC/cm2):	3.77e+00
Offset (uC/cm2):	3.63e+01

A (Loop Area - uC/cm2·Volts):	3.27e-01



Hysteresis Version: 5.48.1 - Radiant Technologies, Inc., 1999 - 9/12/24

