»»»»»»»»»»»»»»»»»»»»»»»»»»»»»»»»»»»» Hysteresis ««««««««««««««««««««««««««««««««««««
»»»  Executed Version:	5.48.1
»»»  Vision Version:	5.48.4 (R)
»»»  Vision Compiled:	9/18/24
»»»  Driver Version:	5.47.0
»»»  Windows Version:	Windows 8 or 8.1
»»»  Processor Information:	x86 (AMD or Intel) - 32 Processors
»»»  Tester Name:	PMF21124-494 (100V)
»»»  Tester S/N:	PMF21124-494
»»»  Internal Amp Type:	100V RevK 270k
»»»  Internal Amp S/N:	iAB2-596/K     
»»»  Execution Count:	1
»»»»»»»»»»»»»»»»»»»»»»»»»»»»»»»»»»»»»»»»»»««««««««««««««««««««««««««««««««««««««««««

Stored:	10/10/2025 - 11:34:12
Configured:	10/10/25 10:37:25 AM
Executed:	10/10/25 11:33:47 AM

»»»»»»»»»»»»»»»»»»»»»»»»»»»»»»»»»»» Sample Info ««««««««««««««««««««««««««««««««««««
Sample Name:	Int. Ref. Ferroelectric
Lot Name:	N/A
Wafer Name:	N/A
Die Row/Column:	0/0
Capacitor Number:	0
Sample Area (cm2):	1.00e-04
Sample Thickness (microns):	3.00e-01

Amplifier:	Internal

»»»»»»»»»»»»»»»»»»»»»»»»»»»»»»»»»»» Tester Info «««««««««««««««««««««««««««««««««««
Tester Name:	PMF21124-494 (100V)
Tester Serial Number:	PMF21124-494
Return Signal Amp. Level:	0.02 [Index: 2]

»»»»»»»»»»»»»»»»»»»»»»»»»»»»»»»» Hysteresis Info ««««««««««««««««««««««««««««««««««
Task Name:	Hyst-170
Volts:	20.00
Field:	666.67 (kV/cm)
DCBias:	0.00
DCField:	0.00 (kV/cm)
Hysteresis Period (ms):	5.00e-01
Preset:	Enabled
Preset Delay (ms):	1.00e+03
Profile:	Standard Monopolar

»»»»»»»»»»»»»»»»»»»»»»»»»»»»»»»»»»»»»» Data «««««««««««««««««««««««««««««««««««««««
Points:	1001

Valid Data

Point	Time (ms)	Drive Voltage	Measured Polarization (uC/cm2)	Capacitance (uF)	Normalized Capacitance (uF/cm2)	Dielectric Constant	Instantaneous Current (mA)
   1	0.0000e+00	0.0369	-28.289464	0.000726	7.264834	2.461392	0.058254
   2	5.0000e-04	0.0578	-27.998196	0.000726	7.264834	2.461392	0.058254
   3	1.0000e-03	0.1299	-28.107421	-0.000272	-2.724313	-0.923022	-0.021845
   4	1.5000e-03	0.1700	-27.743336	0.000908	9.081043	3.076741	0.072817
   5	2.0000e-03	0.1829	-27.706927	0.000091	0.908104	0.307674	0.007282
   6	2.5000e-03	0.2166	-27.160798	0.001362	13.621564	4.615111	0.109226
   7	3.0000e-03	0.2759	-27.233616	-0.000182	-1.816209	-0.615348	-0.014563
   8	3.5000e-03	0.3208	-27.160798	0.000182	1.816209	0.615348	0.014563
   9	4.0000e-03	0.3545	-26.869530	0.000726	7.264834	2.461392	0.058254
  10	4.5000e-03	0.3770	-26.869530	0.000000	0.000000	0.000000	0.000000
  11	5.0000e-03	0.4187	-26.578261	0.000726	7.264834	2.461392	0.058254
  12	5.5000e-03	0.4909	-26.323401	0.000636	6.356730	2.153718	0.050972
  13	6.0000e-03	0.4925	-26.396218	-0.000182	-1.816209	-0.615348	-0.014563
  14	6.5000e-03	0.5904	-26.432627	-0.000091	-0.908104	-0.307674	-0.007282
  15	7.0000e-03	0.6000	-25.959315	0.001181	11.805356	3.999763	0.094662
  16	7.5000e-03	0.6160	-25.704455	0.000636	6.356730	2.153718	0.050972
  17	8.0000e-03	0.6914	-25.668047	0.000091	0.908104	0.307674	0.007282
  18	8.5000e-03	0.7379	-25.995724	-0.000817	-8.172939	-2.769067	-0.065535
  19	9.0000e-03	0.7428	-25.376778	0.001544	15.437773	5.230459	0.123789
  20	9.5000e-03	0.7845	-25.558821	-0.000454	-4.540521	-1.538370	-0.036409
  21	1.0000e-02	0.8551	-25.522412	0.000091	0.908104	0.307674	0.007282
  22	1.0500e-02	0.8968	-24.939875	0.001453	14.529668	4.922785	0.116507
  23	1.1000e-02	0.9353	-24.976284	-0.000091	-0.908104	-0.307674	-0.007282
  24	1.1500e-02	0.9449	-24.757832	0.000545	5.448626	1.846044	0.043690
  25	1.2000e-02	0.9882	-24.539381	0.000545	5.448626	1.846044	0.043690
  26	1.2500e-02	1.0283	-24.685015	-0.000363	-3.632417	-1.230696	-0.029127
  27	1.3000e-02	1.0780	-24.393747	0.000726	7.264834	2.461392	0.058254
  28	1.3500e-02	1.1101	-24.102478	0.000726	7.264834	2.461392	0.058254
  29	1.4000e-02	1.1615	-24.102478	0.000000	0.000000	0.000000	0.000000
  30	1.4500e-02	1.2208	-23.884026	0.000545	5.448626	1.846044	0.043690
  31	1.5000e-02	1.2224	-23.847618	0.000091	0.908104	0.307674	0.007282
  32	1.5500e-02	1.2834	-23.519941	0.000817	8.172939	2.769067	0.065535
  33	1.6000e-02	1.2818	-23.301489	-0.000545	-5.448626	-1.846044	0.043690
  34	1.6500e-02	1.3395	-23.519941	-0.000545	-5.448626	-1.846044	-0.043690
  35	1.7000e-02	1.3796	-23.301489	0.000545	5.448626	1.846044	0.043690
  36	1.7500e-02	1.4294	-23.155855	0.000363	3.632417	1.230696	0.029127
  37	1.8000e-02	1.4743	-23.374306	-0.000545	-5.448626	-1.846044	-0.043690
  38	1.8500e-02	1.5144	-22.828178	0.001362	13.621564	4.615111	0.109226
  39	1.9000e-02	1.5609	-22.609726	0.000545	5.448626	1.846044	0.043690
  40	1.9500e-02	1.6010	-22.354866	0.000636	6.356730	2.153718	0.050972
  41	2.0000e-02	1.6331	-22.718952	-0.000908	-9.081043	-3.076741	-0.072817
  42	2.0500e-02	1.6909	-22.136415	0.001453	14.529668	4.922785	0.116507
  43	2.1000e-02	1.7133	-22.209232	-0.000182	-1.816209	-0.615348	-0.014563
  44	2.1500e-02	1.7647	-22.136415	0.000182	1.816209	0.615348	0.014563
  45	2.2000e-02	1.7919	-21.990780	0.000363	3.632417	1.230696	0.029127
  46	2.2500e-02	1.8304	-21.917963	0.000182	1.816209	0.615348	0.014563
  47	2.3000e-02	1.8818	-21.808738	0.000272	2.724313	0.923022	0.021845
  48	2.3500e-02	1.9267	-21.444652	0.000908	9.081043	3.076741	0.072817
  49	2.4000e-02	1.9604	-21.444652	0.000000	0.000000	0.000000	0.000000
  50	2.4500e-02	2.0005	-21.044157	0.000999	9.989147	3.384415	0.080099
  51	2.5000e-02	2.0310	-21.299018	-0.000636	-6.356730	-2.153718	-0.050972
  52	2.5500e-02	2.0935	-21.007749	0.000726	7.264834	2.461392	0.058254
  53	2.6000e-02	2.1240	-20.862115	0.000363	3.632417	1.230696	0.029127
  54	2.6500e-02	2.1449	-20.534437	0.000817	8.172939	2.769067	0.065535
  55	2.7000e-02	2.1737	-20.680072	-0.000363	-3.632417	-1.230696	-0.029127
  56	2.7500e-02	2.2315	-20.315986	0.000908	9.081043	3.076741	0.072817
  57	2.8000e-02	2.2844	-20.534437	-0.000545	-5.448626	-1.846044	-0.043690
  58	2.8500e-02	2.3277	-20.243169	0.000726	7.264834	2.461392	0.058254
  59	2.9000e-02	2.3566	-20.097534	0.000363	3.632417	1.230696	0.029127
  60	2.9500e-02	2.4112	-19.988309	0.000272	2.724313	0.923022	0.021845
  61	3.0000e-02	2.4400	-19.587814	0.000999	9.989147	3.384415	0.080099
  62	3.0500e-02	2.4721	-19.660632	-0.000182	-1.816209	-0.615348	-0.014563
  63	3.1000e-02	2.5219	-19.405772	0.000636	6.356730	2.153718	0.050972
  64	3.1500e-02	2.5427	-19.442180	-0.000091	-0.908104	-0.307674	-0.007282
  65	3.2000e-02	2.5860	-19.260137	0.000454	4.540521	1.538370	0.036409
  66	3.2500e-02	2.6374	-19.223729	0.000091	0.908104	0.307674	0.007282
  67	3.3000e-02	2.6646	-19.078094	0.000363	3.632417	1.230696	0.029127
  68	3.3500e-02	2.7208	-18.568374	0.001271	12.713460	4.307437	0.101944
  69	3.4000e-02	2.7673	-18.896051	-0.000817	-8.172939	-2.769067	-0.065535
  70	3.4500e-02	2.7962	-18.531966	0.000908	9.081043	3.076741	0.072817
  71	3.5000e-02	2.8267	-18.240697	0.000726	7.264834	2.461392	0.058254
  72	3.5500e-02	2.8860	-18.240697	0.000000	0.000000	0.000000	0.000000
  73	3.6000e-02	2.9261	-17.949428	0.000726	7.264834	2.461392	0.058254
  74	3.6500e-02	2.9277	-17.949428	0.000000	0.000000	0.000000	0.000000
  75	3.7000e-02	2.9871	-18.058654	-0.000272	-2.724313	-0.923022	-0.021845
  76	3.7500e-02	3.0256	-17.694568	0.000908	9.081043	3.076741	0.072817
  77	3.8000e-02	3.0962	-17.840203	-0.000363	-3.632417	-1.230696	-0.029127
  78	3.8500e-02	3.1283	-17.366891	0.001181	11.805356	3.999763	0.094662
  79	3.9000e-02	3.1668	-17.257665	0.000272	2.724313	0.923022	0.021845
  80	3.9500e-02	3.1940	-17.075623	0.000454	4.540521	1.538370	0.036409
  81	4.0000e-02	3.2406	-17.184848	-0.000272	-2.724313	-0.923022	-0.021845
  82	4.0500e-02	3.2710	-17.221257	-0.000091	-0.908104	-0.307674	-0.007282
  83	4.1000e-02	3.3127	-16.929988	0.000726	7.264834	2.461392	0.058254
  84	4.1500e-02	3.3416	-16.529494	0.000999	9.989147	3.384415	0.080099
  85	4.2000e-02	3.4106	-16.820763	-0.000726	-7.264834	-2.461392	-0.058254
  86	4.2500e-02	3.4282	-16.092591	0.001816	18.162086	6.153481	0.145634
  87	4.3000e-02	3.4700	-16.311042	-0.000545	-5.448626	-1.846044	-0.043690
  88	4.3500e-02	3.5149	-16.238225	0.000182	1.816209	0.615348	0.014563
  89	4.4000e-02	3.5341	-16.019774	0.000545	5.448626	1.846044	0.043690
  90	4.4500e-02	3.5823	-16.129000	-0.000272	-2.724313	-0.923022	-0.021845
  91	4.5000e-02	3.6464	-15.910548	0.000545	5.448626	1.846044	0.043690
  92	4.5500e-02	3.6689	-15.655688	0.000636	6.356730	2.153718	0.050972
  93	4.6000e-02	3.7250	-15.837731	-0.000454	-4.540521	-1.538370	-0.036409
  94	4.6500e-02	3.7459	-15.291602	0.001362	13.621564	4.615111	0.109226
  95	4.7000e-02	3.7892	-15.000334	0.000726	7.264834	2.461392	0.058254
  96	4.7500e-02	3.8245	-15.145968	-0.000363	-3.632417	-1.230696	-0.029127
  97	4.8000e-02	3.8774	-15.437237	-0.000726	-7.264834	-2.461392	-0.058254
  98	4.8500e-02	3.9207	-14.963925	0.001181	11.805356	3.999763	0.094662
  99	4.9000e-02	3.9480	-14.672657	0.000726	7.264834	2.461392	0.058254
 100	4.9500e-02	4.0026	-14.672657	0.000000	0.000000	0.000000	0.000000
 101	5.0000e-02	4.0379	-14.563431	0.000272	2.724313	0.923022	0.021845
 102	5.0500e-02	4.0764	-14.563431	0.000000	0.000000	0.000000	0.000000
 103	5.1000e-02	4.1181	-14.235754	0.000817	8.172939	2.769067	0.065535
 104	5.1500e-02	4.1662	-13.762442	0.001181	11.805356	3.999763	0.094662
 105	5.2000e-02	4.2095	-14.235754	-0.001181	-11.805356	-3.999763	-0.094662
 106	5.2500e-02	4.2320	-13.689625	0.001362	13.621564	4.615111	0.109226
 107	5.3000e-02	4.2993	-13.689625	0.000000	0.000000	0.000000	0.000000
 108	5.3500e-02	4.3218	-13.762442	-0.000182	-1.816209	-0.615348	-0.014563
 109	5.4000e-02	4.3523	-13.398356	0.000908	9.081043	3.076741	0.072817
 110	5.4500e-02	4.4020	-13.580399	-0.000454	-4.540521	-1.538370	-0.036409
 111	5.5000e-02	4.4405	-13.034271	0.001362	13.621564	4.615111	0.109226
 112	5.5500e-02	4.4774	-13.179905	-0.000363	-3.632417	-1.230696	-0.029127
 113	5.6000e-02	4.5031	-12.961453	0.000545	5.448626	1.846044	0.043690
 114	5.6500e-02	4.5705	-12.524550	0.001090	10.897251	3.692089	0.087381
 115	5.7000e-02	4.5977	-12.670185	-0.000363	-3.632417	-1.230696	-0.029127
 116	5.7500e-02	4.6571	-12.925045	-0.000636	-6.356730	-2.153718	-0.050972
 117	5.8000e-02	4.6924	-12.925045	0.000000	0.000000	0.000000	0.000000
 118	5.8500e-02	4.7261	-12.633776	0.000726	7.264834	2.461392	0.058254
 119	5.9000e-02	4.7614	-12.269690	0.000908	9.081043	3.076741	0.072817
 120	5.9500e-02	4.7918	-12.160465	0.000272	2.724313	0.923022	0.021845
 121	6.0000e-02	4.8464	-12.160465	0.000000	0.000000	0.000000	0.000000
 122	6.0500e-02	4.8688	-12.160465	0.000000	0.000000	0.000000	0.000000
 123	6.1000e-02	4.9009	-11.723562	0.001090	10.897251	3.692089	0.087381
 124	6.1500e-02	4.9587	-11.905605	-0.000454	-4.540521	-1.538370	-0.036409
 125	6.2000e-02	5.0052	-11.286659	0.001544	15.437773	5.230459	0.123789
 126	6.2500e-02	5.0469	-11.541519	-0.000636	-6.356730	-2.153718	-0.050972
 127	6.3000e-02	5.0902	-11.541519	0.000000	0.000000	0.000000	0.000000
 128	6.3500e-02	5.1127	-10.995390	0.001362	13.621564	4.615111	0.109226
 129	6.4000e-02	5.1656	-11.031799	-0.000091	-0.908104	-0.307674	-0.007282
 130	6.4500e-02	5.1977	-11.031799	0.000000	0.000000	0.000000	0.000000
 131	6.5000e-02	5.2539	-10.704122	0.000817	8.172939	2.769067	0.065535
 132	6.5500e-02	5.2843	-10.849756	-0.000363	-3.632417	-1.230696	-0.029127
 133	6.6000e-02	5.3261	-10.704122	0.000363	3.632417	1.230696	0.029127
 134	6.6500e-02	5.3662	-10.594896	0.000272	2.724313	0.923022	0.021845
 135	6.7000e-02	5.3918	-10.267219	0.000817	8.172939	2.769067	0.065535
 136	6.7500e-02	5.4480	-10.340036	-0.000182	-1.816209	-0.615348	-0.014563
 137	6.8000e-02	5.4608	-10.485670	-0.000363	-3.632417	-1.230696	-0.029127
 138	6.8500e-02	5.4945	-9.611864	0.002179	21.794503	7.384177	0.174761
 139	6.9000e-02	5.5603	-9.830316	-0.000545	-5.448626	-1.846044	-0.043690
 140	6.9500e-02	5.6004	-9.866724	-0.000091	-0.908104	-0.307674	-0.007282
 141	7.0000e-02	5.6421	-9.611864	0.000636	6.356730	2.153718	0.050972
 142	7.0500e-02	5.6998	-9.393413	0.000545	5.448626	1.846044	0.043690
 143	7.1000e-02	5.7095	-9.174961	0.000545	5.448626	1.846044	0.043690
 144	7.1500e-02	5.7656	-9.211370	-0.000091	-0.908104	-0.307674	-0.007282
 145	7.2000e-02	5.7993	-9.102144	0.000272	2.724313	0.923022	0.021845
 146	7.2500e-02	5.8298	-9.393413	-0.000726	-7.264834	-2.461392	-0.058254
 147	7.3000e-02	5.8747	-8.847284	0.001362	13.621564	4.615111	0.109226
 148	7.3500e-02	5.9116	-8.774467	0.000182	1.816209	0.615348	0.014563
 149	7.4000e-02	5.9597	-8.483198	0.000726	7.264834	2.461392	0.058254
 150	7.4500e-02	6.0062	-8.155521	0.000817	8.172939	2.769067	0.065535
 151	7.5000e-02	6.0367	-8.410381	-0.000636	-6.356730	-2.153718	-0.050972
 152	7.5500e-02	6.0881	-8.082704	0.000817	8.172939	2.769067	0.065535
 153	7.6000e-02	6.1298	-8.046296	0.000091	0.908104	0.307674	0.007282
 154	7.6500e-02	6.1635	-8.119113	-0.000182	-1.816209	-0.615348	-0.014563
 155	7.7000e-02	6.1972	-8.046296	0.000182	1.816209	0.615348	0.014563
 156	7.7500e-02	6.2373	-7.572984	0.001181	11.805356	3.999763	0.094662
 157	7.8000e-02	6.2742	-7.645801	-0.000182	-1.816209	-0.615348	-0.014563
 158	7.8500e-02	6.3287	-7.536575	0.000272	2.724313	0.923022	0.021845
 159	7.9000e-02	6.3528	-7.463758	0.000182	1.816209	0.615348	0.014563
 160	7.9500e-02	6.4185	-7.099673	0.000908	9.081043	3.076741	0.072817
 161	8.0000e-02	6.4346	-6.844812	0.000636	6.356730	2.153718	0.050972
 162	8.0500e-02	6.4747	-7.390941	-0.001362	-13.621564	-4.615111	-0.109226
 163	8.1000e-02	6.4923	-6.626361	0.001907	19.070190	6.461155	0.152916
 164	8.1500e-02	6.5629	-7.026855	-0.000999	-9.989147	-3.384415	-0.080099
 165	8.2000e-02	6.6062	-6.808404	0.000545	5.448626	1.846044	0.043690
 166	8.2500e-02	6.6592	-6.553544	0.000636	6.356730	2.153718	0.050972
 167	8.3000e-02	6.6800	-6.444318	0.000272	2.724313	0.923022	0.021845
 168	8.3500e-02	6.6977	-6.371501	0.000182	1.816209	0.615348	0.014563
 169	8.4000e-02	6.7683	-6.116641	0.000636	6.356730	2.153718	0.050972
 170	8.4500e-02	6.7955	-6.080232	0.000091	0.908104	0.307674	0.007282
 171	8.5000e-02	6.8228	-5.679738	0.000999	9.989147	3.384415	0.080099
 172	8.5500e-02	6.8806	-6.007415	-0.000817	-8.172939	-2.769067	-0.065535
 173	8.6000e-02	6.9046	-5.352061	0.001635	16.345877	5.538133	0.131071
 174	8.6500e-02	6.9560	-5.606921	-0.000636	-6.356730	-2.153718	-0.050972
 175	8.7000e-02	6.9977	-5.388469	0.000545	5.448626	1.846044	0.043690
 176	8.7500e-02	7.0586	-5.315652	0.000182	1.816209	0.615348	0.014563
 177	8.8000e-02	7.1003	-5.097201	0.000545	5.448626	1.846044	0.043690
 178	8.8500e-02	7.1068	-4.951566	0.000363	3.632417	1.230696	0.029127
 179	8.9000e-02	7.1581	-5.133609	-0.000454	-4.540521	-1.538370	-0.036409
 180	8.9500e-02	7.2062	-4.915158	0.000545	5.448626	1.846044	0.043690
 181	9.0000e-02	7.2158	-4.514664	0.000999	9.989147	3.384415	0.080099
 182	9.0500e-02	7.2672	-4.733115	-0.000545	-5.448626	-1.846044	-0.043690
 183	9.1000e-02	7.2961	-4.551072	0.000454	4.540521	1.538370	0.036409
 184	9.1500e-02	7.3474	-4.623889	-0.000182	-1.816209	-0.615348	-0.014563
 185	9.2000e-02	7.3907	-4.441846	0.000454	4.540521	1.538370	0.036409
 186	9.2500e-02	7.4468	-4.223395	0.000545	5.448626	1.846044	0.043690
 187	9.3000e-02	7.4886	-3.786492	0.001090	10.897251	3.692089	0.087381
 188	9.3500e-02	7.5126	-4.041352	-0.000636	-6.356730	-2.153718	-0.050972
 189	9.4000e-02	7.5559	-3.495223	0.001362	13.621564	4.615111	0.109226
 190	9.4500e-02	7.6105	-3.822901	-0.000817	-8.172939	-2.769067	-0.065535
 191	9.5000e-02	7.6474	-3.313181	0.001271	12.713460	4.307437	0.101944
 192	9.5500e-02	7.6795	-3.349589	-0.000091	-0.908104	-0.307674	-0.007282
 193	9.6000e-02	7.7308	-2.949095	0.000999	9.989147	3.384415	0.080099
 194	9.6500e-02	7.7436	-3.313181	-0.000908	-9.081043	-3.076741	-0.072817
 195	9.7000e-02	7.7966	-3.021912	0.000726	7.264834	2.461392	0.058254
 196	9.7500e-02	7.8062	-2.621418	0.000999	9.989147	3.384415	0.080099
 197	9.8000e-02	7.8736	-2.876278	-0.000636	-6.356730	-2.153718	-0.050972
 198	9.8500e-02	7.9201	-2.730643	0.000363	3.632417	1.230696	0.029127
 199	9.9000e-02	7.9666	-2.730643	0.000000	0.000000	0.000000	0.000000
 200	9.9500e-02	7.9875	-2.439375	0.000726	7.264834	2.461392	0.058254
 201	1.0000e-01	8.0500	-2.439375	0.000000	0.000000	0.000000	0.000000
 202	1.0050e-01	8.0901	-2.439375	0.000000	0.000000	0.000000	0.000000
 203	1.0100e-01	8.0982	-1.820429	0.001544	15.437773	5.230459	0.123789
 204	1.0150e-01	8.1511	-1.929655	-0.000272	-2.724313	-0.923022	-0.021845
 205	1.0200e-01	8.1864	-1.784020	0.000363	3.632417	1.230696	0.029127
 206	1.0250e-01	8.2409	-1.856837	-0.000182	-1.816209	-0.615348	-0.014563
 207	1.0300e-01	8.2714	-1.492752	0.000908	9.081043	3.076741	0.072817
 208	1.0350e-01	8.3163	-1.747612	-0.000636	-6.356730	-2.153718	-0.050972
 209	1.0400e-01	8.3661	-1.128666	0.001544	15.437773	5.230459	0.123789
 210	1.0450e-01	8.3982	-1.966063	-0.002089	-20.886398	-7.076503	-0.167479
 211	1.0500e-01	8.4078	-1.201483	0.001907	19.070190	6.461155	0.152916
 212	1.0550e-01	8.4687	-0.910214	0.000726	7.264834	2.461392	0.058254
 213	1.0600e-01	8.5233	-1.165074	-0.000636	-6.356730	-2.153718	-0.050972
 214	1.0650e-01	8.5441	-0.728172	0.001090	10.897251	3.692089	0.087381
 215	1.0700e-01	8.5826	-1.019440	-0.000726	-7.264834	-2.461392	-0.058254
 216	1.0750e-01	8.6308	-0.582537	0.001090	10.897251	3.692089	0.087381
 217	1.0800e-01	8.6789	-0.291269	0.000726	7.264834	2.461392	0.058254
 218	1.0850e-01	8.7254	-0.109226	0.000454	4.540521	1.538370	0.036409
 219	1.0900e-01	8.7575	-0.182043	-0.000182	-1.816209	-0.615348	-0.014563
 220	1.0950e-01	8.7896	0.072817	0.000636	6.356730	2.153718	0.050972
 221	1.1000e-01	8.8361	-0.109226	-0.000454	-4.540521	-1.538370	-0.036409
 222	1.1050e-01	8.8923	-0.218451	-0.000272	-2.724313	-0.923022	-0.021845
 223	1.1100e-01	8.9436	0.036409	0.000636	6.356730	2.153718	0.050972
 224	1.1150e-01	8.9500	0.218451	0.000454	4.540521	1.538370	0.036409
 225	1.1200e-01	8.9901	0.400494	0.000454	4.540521	1.538370	0.036409
 226	1.1250e-01	9.0415	0.546129	0.000363	3.632417	1.230696	0.029127
 227	1.1300e-01	9.0767	0.837397	0.000726	7.264834	2.461392	0.058254
 228	1.1350e-01	9.1169	0.546129	-0.000726	-7.264834	-2.461392	-0.058254
 229	1.1400e-01	9.1377	1.055849	0.001271	12.713460	4.307437	0.101944
 230	1.1450e-01	9.1923	1.055849	0.000000	0.000000	0.000000	0.000000
 231	1.1500e-01	9.2420	1.165074	0.000272	2.724313	0.923022	0.021845
 232	1.1550e-01	9.2869	1.092257	-0.000182	-1.816209	-0.615348	-0.014563
 233	1.1600e-01	9.3174	1.128666	0.000091	0.908104	0.307674	0.007282
 234	1.1650e-01	9.3719	1.456343	0.000817	8.172939	2.769067	0.065535
 235	1.1700e-01	9.4217	2.002472	0.001362	13.621564	4.615111	0.109226
 236	1.1750e-01	9.4441	1.383526	-0.001544	-15.437773	-5.230459	-0.123789
 237	1.1800e-01	9.4778	1.638386	0.000636	6.356730	2.153718	0.050972
 238	1.1850e-01	9.5131	2.038880	0.000999	9.989147	3.384415	0.080099
 239	1.1900e-01	9.5388	1.820429	-0.000545	-5.448626	-1.846044	-0.043690
 240	1.1950e-01	9.5885	2.075289	0.000636	6.356730	2.153718	0.050972
 241	1.2000e-01	9.6222	2.075289	0.000000	0.000000	0.000000	0.000000
 242	1.2050e-01	9.6559	2.293740	0.000545	5.448626	1.846044	0.043690
 243	1.2100e-01	9.7120	2.548600	0.000636	6.356730	2.153718	0.050972
 244	1.2150e-01	9.7361	2.767052	0.000545	5.448626	1.846044	0.043690
 245	1.2200e-01	9.8115	2.876278	0.000272	2.724313	0.923022	0.021845
 246	1.2250e-01	9.8323	2.876278	0.000000	0.000000	0.000000	0.000000
 247	1.2300e-01	9.8660	2.475783	-0.000999	-9.989147	-3.384415	-0.080099
 248	1.2350e-01	9.9190	3.203955	0.001816	18.162086	6.153481	0.145634
 249	1.2400e-01	9.9607	3.094729	-0.000272	-2.724313	-0.923022	-0.021845
 250	1.2450e-01	9.9960	3.568041	0.001181	11.805356	3.999763	0.094662
 251	1.2500e-01	10.0393	3.203955	-0.000908	-9.081043	-3.076741	-0.072817
 252	1.2550e-01	10.0698	3.313181	0.000272	2.724313	0.923022	0.021845
 253	1.2600e-01	10.1019	3.895718	0.001453	14.529668	4.922785	0.116507
 254	1.2650e-01	10.1323	3.859309	-0.000091	-0.908104	-0.307674	-0.007282
 255	1.2700e-01	10.1901	4.041352	0.000454	4.540521	1.538370	0.036409
 256	1.2750e-01	10.1997	3.677266	-0.000908	-9.081043	-3.076741	-0.072817
 257	1.2800e-01	10.2510	4.114169	0.001090	10.897251	3.692089	0.087381
 258	1.2850e-01	10.3248	4.186986	0.000182	1.816209	0.615348	0.014563
 259	1.2900e-01	10.3232	4.441846	-0.000636	-6.356730	-2.153718	0.050972
 260	1.2950e-01	10.3858	4.296212	-0.000363	-3.632417	-1.230696	-0.029127
 261	1.3000e-01	10.4371	4.623889	0.000817	8.172939	2.769067	0.065535
 262	1.3050e-01	10.4724	4.660298	0.000091	0.908104	0.307674	0.007282
 263	1.3100e-01	10.5430	5.097201	0.001090	10.897251	3.692089	0.087381
 264	1.3150e-01	10.5526	4.696706	-0.000999	-9.989147	-3.384415	-0.080099
 265	1.3200e-01	10.5815	4.514664	-0.000454	-4.540521	-1.538370	-0.036409
 266	1.3250e-01	10.6505	5.097201	0.001453	14.529668	4.922785	0.116507
 267	1.3300e-01	10.6826	4.951566	-0.000363	-3.632417	-1.230696	-0.029127
 268	1.3350e-01	10.7259	5.279244	0.000817	8.172939	2.769067	0.065535
 269	1.3400e-01	10.7820	5.206427	-0.000182	-1.816209	-0.615348	-0.014563
 270	1.3450e-01	10.8157	5.461287	0.000636	6.356730	2.153718	0.050972
 271	1.3500e-01	10.8398	5.352061	-0.000272	-2.724313	-0.923022	-0.021845
 272	1.3550e-01	10.8783	5.570512	0.000545	5.448626	1.846044	0.043690
 273	1.3600e-01	10.9088	5.716147	0.000363	3.632417	1.230696	0.029127
 274	1.3650e-01	10.9746	5.788964	0.000182	1.816209	0.615348	0.014563
 275	1.3700e-01	11.0115	5.825372	0.000091	0.908104	0.307674	0.007282
 276	1.3750e-01	11.0644	6.371501	0.001362	13.621564	4.615111	0.109226
 277	1.3800e-01	11.0836	6.007415	-0.000908	-9.081043	-3.076741	-0.072817
 278	1.3850e-01	11.1125	6.225867	0.000545	5.448626	1.846044	0.043690
 279	1.3900e-01	11.1558	6.589952	0.000908	9.081043	3.076741	0.072817
 280	1.3950e-01	11.1767	6.480727	-0.000272	-2.724313	-0.923022	-0.021845
 281	1.4000e-01	11.2393	6.662770	0.000454	4.540521	1.538370	0.036409
 282	1.4050e-01	11.2922	6.553544	-0.000272	-2.724313	-0.923022	-0.021845
 283	1.4100e-01	11.3082	6.589952	0.000091	0.908104	0.307674	0.007282
 284	1.4150e-01	11.3532	7.354533	0.001907	19.070190	6.461155	0.152916
 285	1.4200e-01	11.3756	7.026855	-0.000817	-8.172939	-2.769067	-0.065535
 286	1.4250e-01	11.4270	7.208898	0.000454	4.540521	1.538370	0.036409
 287	1.4300e-01	11.4606	7.354533	0.000363	3.632417	1.230696	0.029127
 288	1.4350e-01	11.5136	7.500167	0.000363	3.632417	1.230696	0.029127
 289	1.4400e-01	11.5441	7.718618	0.000545	5.448626	1.846044	0.043690
 290	1.4450e-01	11.5906	7.682210	-0.000091	-0.908104	-0.307674	-0.007282
 291	1.4500e-01	11.6098	7.536575	-0.000363	-3.632417	-1.230696	-0.029127
 292	1.4550e-01	11.6740	8.009887	0.001181	11.805356	3.999763	0.094662
 293	1.4600e-01	11.7141	7.682210	-0.000817	-8.172939	-2.769067	-0.065535
 294	1.4650e-01	11.7574	8.119113	0.001090	10.897251	3.692089	0.087381
 295	1.4700e-01	11.7831	8.082704	-0.000091	-0.908104	-0.307674	-0.007282
 296	1.4750e-01	11.8633	8.301156	0.000545	5.448626	1.846044	0.043690
 297	1.4800e-01	11.8761	8.264747	-0.000091	-0.908104	-0.307674	-0.007282
 298	1.4850e-01	11.9355	8.665241	0.000999	9.989147	3.384415	0.080099
 299	1.4900e-01	11.9676	8.556016	-0.000272	-2.724313	-0.923022	-0.021845
 300	1.4950e-01	11.9852	8.519607	-0.000091	-0.908104	-0.307674	-0.007282
 301	1.5000e-01	12.0141	8.446790	-0.000182	-1.816209	-0.615348	-0.014563
 302	1.5050e-01	12.0686	8.956510	0.001271	12.713460	4.307437	0.101944
 303	1.5100e-01	12.1055	8.992919	0.000091	0.908104	0.307674	0.007282
 304	1.5150e-01	12.1729	9.211370	0.000545	5.448626	1.846044	0.043690
 305	1.5200e-01	12.1874	9.247779	0.000091	0.908104	0.307674	0.007282
 306	1.5250e-01	12.2435	9.466230	0.000545	5.448626	1.846044	0.043690
 307	1.5300e-01	12.2579	9.429821	-0.000091	-0.908104	-0.307674	-0.007282
 308	1.5350e-01	12.3093	9.357004	-0.000182	-1.816209	-0.615348	-0.014563
 309	1.5400e-01	12.3590	9.575456	0.000545	5.448626	1.846044	0.043690
 310	1.5450e-01	12.3734	10.157993	0.001453	14.529668	4.922785	0.116507
 311	1.5500e-01	12.4360	10.012359	-0.000363	-3.632417	-1.230696	-0.029127
 312	1.5550e-01	12.4761	9.939542	-0.000182	-1.816209	-0.615348	-0.014563
 313	1.5600e-01	12.5451	9.866724	-0.000182	-1.816209	-0.615348	-0.014563
 314	1.5650e-01	12.5547	10.267219	0.000999	9.989147	3.384415	0.080099
 315	1.5700e-01	12.5836	10.522079	0.000636	6.356730	2.153718	0.050972
 316	1.5750e-01	12.6285	9.866724	-0.001635	-16.345877	-5.538133	-0.131071
 317	1.5800e-01	12.6622	10.667713	0.001998	19.978294	6.768829	0.160198
 318	1.5850e-01	12.6959	10.631304	-0.000091	-0.908104	-0.307674	-0.007282
 319	1.5900e-01	12.7681	10.922573	0.000726	7.264834	2.461392	0.058254
 320	1.5950e-01	12.7938	10.594896	-0.000817	-8.172939	-2.769067	-0.065535
 321	1.6000e-01	12.8258	10.922573	0.000817	8.172939	2.769067	0.065535
 322	1.6050e-01	12.8772	10.849756	-0.000182	-1.816209	-0.615348	-0.014563
 323	1.6100e-01	12.9125	10.922573	0.000182	1.816209	0.615348	0.014563
 324	1.6150e-01	12.9173	11.323067	0.000999	9.989147	3.384415	0.080099
 325	1.6200e-01	12.9991	11.541519	0.000545	5.448626	1.846044	0.043690
 326	1.6250e-01	13.0200	11.286659	-0.000636	-6.356730	-2.153718	-0.050972
 327	1.6300e-01	13.0633	11.395885	0.000272	2.724313	0.923022	0.021845
 328	1.6350e-01	13.1290	11.505110	0.000272	2.724313	0.923022	0.021845
 329	1.6400e-01	13.1643	11.832788	0.000817	8.172939	2.769067	0.065535
 330	1.6450e-01	13.1772	11.869196	0.000091	0.908104	0.307674	0.007282
 331	1.6500e-01	13.2269	12.196873	0.000817	8.172939	2.769067	0.065535
 332	1.6550e-01	13.2574	11.832788	-0.000908	-9.081043	-3.076741	-0.072817
 333	1.6600e-01	13.3103	12.014830	0.000454	4.540521	1.538370	0.036409
 334	1.6650e-01	13.3536	12.451733	0.001090	10.897251	3.692089	0.087381
 335	1.6700e-01	13.3841	12.124056	-0.000817	-8.172939	-2.769067	-0.065535
 336	1.6750e-01	13.4322	12.597368	0.001181	11.805356	3.999763	0.094662
 337	1.6800e-01	13.4611	12.488142	-0.000272	-2.724313	-0.923022	-0.021845
 338	1.6850e-01	13.5092	12.815819	0.000817	8.172939	2.769067	0.065535
 339	1.6900e-01	13.5381	12.743002	-0.000182	-1.816209	-0.615348	-0.014563
 340	1.6950e-01	13.5798	12.706593	-0.000091	-0.908104	-0.307674	-0.007282
 341	1.7000e-01	13.6151	13.216313	0.001271	12.713460	4.307437	0.101944
 342	1.7050e-01	13.6665	12.779411	-0.001090	-10.897251	-3.692089	-0.087381
 343	1.7100e-01	13.7114	13.070679	0.000726	7.264834	2.461392	0.058254
 344	1.7150e-01	13.7691	13.361948	0.000726	7.264834	2.461392	0.058254
 345	1.7200e-01	13.7836	13.616808	0.000636	6.356730	2.153718	0.050972
 346	1.7250e-01	13.8205	13.543991	-0.000182	-1.816209	-0.615348	-0.014563
 347	1.7300e-01	13.8686	13.289131	-0.000636	-6.356730	-2.153718	-0.050972
 348	1.7350e-01	13.9071	13.653216	0.000908	9.081043	3.076741	0.072817
 349	1.7400e-01	13.9713	13.726034	0.000182	1.816209	0.615348	0.014563
 350	1.7450e-01	13.9697	13.980894	-0.000636	-6.356730	-2.153718	0.050972
 351	1.7500e-01	14.0130	14.199345	0.000545	5.448626	1.846044	0.043690
 352	1.7550e-01	14.0707	13.762442	-0.001090	-10.897251	-3.692089	-0.087381
 353	1.7600e-01	14.1156	14.563431	0.001998	19.978294	6.768829	0.160198
 354	1.7650e-01	14.1429	14.199345	-0.000908	-9.081043	-3.076741	-0.072817
 355	1.7700e-01	14.1846	14.490614	0.000726	7.264834	2.461392	0.058254
 356	1.7750e-01	14.2520	14.381388	-0.000272	-2.724313	-0.923022	-0.021845
 357	1.7800e-01	14.2793	14.527022	0.000363	3.632417	1.230696	0.029127
 358	1.7850e-01	14.3226	14.490614	-0.000091	-0.908104	-0.307674	-0.007282
 359	1.7900e-01	14.3755	15.000334	0.001271	12.713460	4.307437	0.101944
 360	1.7950e-01	14.3932	15.582871	0.001453	14.529668	4.922785	0.116507
 361	1.8000e-01	14.4365	14.963925	-0.001544	-15.437773	-5.230459	-0.123789
 362	1.8050e-01	14.4766	14.709065	-0.000636	-6.356730	-2.153718	-0.050972
 363	1.8100e-01	14.5039	15.328011	0.001544	15.437773	5.230459	0.123789
 364	1.8150e-01	14.5456	15.073151	-0.000636	-6.356730	-2.153718	-0.050972
 365	1.8200e-01	14.5857	15.255194	0.000454	4.540521	1.538370	0.036409
 366	1.8250e-01	14.6434	15.692097	0.001090	10.897251	3.692089	0.087381
 367	1.8300e-01	14.6948	15.218785	-0.001181	-11.805356	-3.999763	-0.094662
 368	1.8350e-01	14.7301	15.728505	0.001271	12.713460	4.307437	0.101944
 369	1.8400e-01	14.7782	15.728505	0.000000	0.000000	0.000000	0.000000
 370	1.8450e-01	14.7910	15.801322	0.000182	1.816209	0.615348	0.014563
 371	1.8500e-01	14.8504	16.347451	0.001362	13.621564	4.615111	0.109226
 372	1.8550e-01	14.8632	15.837731	-0.001271	-12.713460	-4.307437	-0.101944
 373	1.8600e-01	14.9113	16.165408	0.000817	8.172939	2.769067	0.065535
 374	1.8650e-01	14.9386	16.165408	0.000000	0.000000	0.000000	0.000000
 375	1.8700e-01	14.9932	16.711537	0.001362	13.621564	4.615111	0.109226
 376	1.8750e-01	15.0445	16.420268	-0.000726	-7.264834	-2.461392	-0.058254
 377	1.8800e-01	15.0846	16.201817	-0.000545	-5.448626	-1.846044	-0.043690
 378	1.8850e-01	15.1135	16.529494	0.000817	8.172939	2.769067	0.065535
 379	1.8900e-01	15.1407	16.966397	0.001090	10.897251	3.692089	0.087381
 380	1.8950e-01	15.1985	16.857171	-0.000272	-2.724313	-0.923022	-0.021845
 381	1.9000e-01	15.2129	17.075623	0.000545	5.448626	1.846044	0.043690
 382	1.9050e-01	15.2579	16.493085	-0.001453	-14.529668	-4.922785	-0.116507
 383	1.9100e-01	15.3108	17.294074	0.001998	19.978294	6.768829	0.160198
 384	1.9150e-01	15.3573	17.621751	0.000817	8.172939	2.769067	0.065535
 385	1.9200e-01	15.3974	17.112031	-0.001271	-12.713460	-4.307437	-0.101944
 386	1.9250e-01	15.4327	17.294074	0.000454	4.540521	1.538370	0.036409
 387	1.9300e-01	15.4680	17.512526	0.000545	5.448626	1.846044	0.043690
 388	1.9350e-01	15.5017	17.366891	-0.000363	-3.632417	-1.230696	-0.029127
 389	1.9400e-01	15.5514	17.767386	0.000999	9.989147	3.384415	0.080099
 390	1.9450e-01	15.5883	18.095063	0.000817	8.172939	2.769067	0.065535
 391	1.9500e-01	15.6252	18.131471	0.000091	0.908104	0.307674	0.007282
 392	1.9550e-01	15.6766	17.949428	-0.000454	-4.540521	-1.538370	-0.036409
 393	1.9600e-01	15.7263	18.277106	0.000817	8.172939	2.769067	0.065535
 394	1.9650e-01	15.7471	17.985837	-0.000726	-7.264834	-2.461392	-0.058254
 395	1.9700e-01	15.7985	18.641191	0.001635	16.345877	5.538133	0.131071
 396	1.9750e-01	15.8258	18.422740	-0.000545	-5.448626	-1.846044	-0.043690
 397	1.9800e-01	15.8610	18.531966	0.000272	2.724313	0.923022	0.021845
 398	1.9850e-01	15.9332	18.459149	-0.000182	-1.816209	-0.615348	-0.014563
 399	1.9900e-01	15.9509	18.896051	0.001090	10.897251	3.692089	0.087381
 400	1.9950e-01	15.9878	18.786826	-0.000272	-2.724313	-0.923022	-0.021845
 401	2.0000e-01	16.0503	18.859643	0.000182	1.816209	0.615348	0.014563
 402	2.0050e-01	16.0760	18.750417	-0.000272	-2.724313	-0.923022	-0.021845
 403	2.0100e-01	16.1065	19.041686	0.000726	7.264834	2.461392	0.058254
 404	2.0150e-01	16.1386	19.041686	0.000000	0.000000	0.000000	0.000000
 405	2.0200e-01	16.1803	19.223729	0.000454	4.540521	1.538370	0.036409
 406	2.0250e-01	16.2364	19.660632	0.001090	10.897251	3.692089	0.087381
 407	2.0300e-01	16.2685	19.296546	-0.000908	-9.081043	-3.076741	-0.072817
 408	2.0350e-01	16.3134	19.697040	0.000999	9.989147	3.384415	0.080099
 409	2.0400e-01	16.3712	19.769857	0.000182	1.816209	0.615348	0.014563
 410	2.0450e-01	16.4065	19.733449	-0.000091	-0.908104	-0.307674	-0.007282
 411	2.0500e-01	16.4482	19.842674	0.000272	2.724313	0.923022	0.021845
 412	2.0550e-01	16.4755	20.206760	0.000908	9.081043	3.076741	0.072817
 413	2.0600e-01	16.5060	19.951900	-0.000636	-6.356730	-2.153718	-0.050972
 414	2.0650e-01	16.5461	20.170352	0.000545	5.448626	1.846044	0.043690
 415	2.0700e-01	16.5926	20.279577	0.000272	2.724313	0.923022	0.021845
 416	2.0750e-01	16.6150	20.315986	0.000091	0.908104	0.307674	0.007282
 417	2.0800e-01	16.6792	20.461620	0.000363	3.632417	1.230696	0.029127
 418	2.0850e-01	16.7225	20.752889	0.000726	7.264834	2.461392	0.058254
 419	2.0900e-01	16.7610	20.534437	-0.000545	-5.448626	-1.846044	-0.043690
 420	2.0950e-01	16.8011	20.862115	0.000817	8.172939	2.769067	0.065535
 421	2.1000e-01	16.8043	20.498029	-0.000908	-9.081043	-3.076741	-0.072817
 422	2.1050e-01	16.8525	21.044157	0.001362	13.621564	4.615111	0.109226
 423	2.1100e-01	16.9231	21.189792	0.000363	3.632417	1.230696	0.029127
 424	2.1150e-01	16.9583	21.116975	-0.000182	-1.816209	-0.615348	-0.014563
 425	2.1200e-01	16.9952	21.189792	0.000182	1.816209	0.615348	0.014563
 426	2.1250e-01	17.0418	21.553878	0.000908	9.081043	3.076741	0.072817
 427	2.1300e-01	17.0883	21.444652	-0.000272	-2.724313	-0.923022	-0.021845
 428	2.1350e-01	17.0995	21.663103	0.000545	5.448626	1.846044	0.043690
 429	2.1400e-01	17.1589	21.590286	-0.000182	-1.816209	-0.615348	-0.014563
 430	2.1450e-01	17.2054	21.808738	0.000545	5.448626	1.846044	0.043690
 431	2.1500e-01	17.2439	21.481060	-0.000817	-8.172939	-2.769067	-0.065535
 432	2.1550e-01	17.2696	21.626695	0.000363	3.632417	1.230696	0.029127
 433	2.1600e-01	17.3033	21.954372	0.000817	8.172939	2.769067	0.065535
 434	2.1650e-01	17.3418	22.172823	0.000545	5.448626	1.846044	0.043690
 435	2.1700e-01	17.3931	22.282049	0.000272	2.724313	0.923022	0.021845
 436	2.1750e-01	17.4412	22.282049	0.000000	0.000000	0.000000	0.000000
 437	2.1800e-01	17.4621	22.136415	-0.000363	-3.632417	-1.230696	-0.029127
 438	2.1850e-01	17.5182	22.609726	0.001181	11.805356	3.999763	0.094662
 439	2.1900e-01	17.5503	22.646135	0.000091	0.908104	0.307674	0.007282
 440	2.1950e-01	17.5936	22.427683	-0.000545	-5.448626	-1.846044	-0.043690
 441	2.2000e-01	17.6257	22.791769	0.000908	9.081043	3.076741	0.072817
 442	2.2050e-01	17.6754	22.536909	-0.000636	-6.356730	-2.153718	-0.050972
 443	2.2100e-01	17.7107	23.046629	0.001271	12.713460	4.307437	0.101944
 444	2.2150e-01	17.7444	22.973812	-0.000182	-1.816209	-0.615348	-0.014563
 445	2.2200e-01	17.8150	22.973812	0.000000	0.000000	0.000000	0.000000
 446	2.2250e-01	17.8519	23.192264	0.000545	5.448626	1.846044	0.043690
 447	2.2300e-01	17.8776	23.119446	-0.000182	-1.816209	-0.615348	-0.014563
 448	2.2350e-01	17.9209	23.374306	0.000636	6.356730	2.153718	0.050972
 449	2.2400e-01	17.9466	23.337898	-0.000091	-0.908104	-0.307674	-0.007282
 450	2.2450e-01	17.9995	23.738392	0.000999	9.989147	3.384415	0.080099
 451	2.2500e-01	18.0412	23.592758	-0.000363	-3.632417	-1.230696	-0.029127
 452	2.2550e-01	18.0685	23.374306	-0.000545	-5.448626	-1.846044	-0.043690
 453	2.2600e-01	18.1102	23.701984	0.000817	8.172939	2.769067	0.065535
 454	2.2650e-01	18.1824	23.956844	0.000636	6.356730	2.153718	0.050972
 455	2.2700e-01	18.1920	23.993252	0.000091	0.908104	0.307674	0.007282
 456	2.2750e-01	18.2498	24.357338	0.000908	9.081043	3.076741	0.072817
 457	2.2800e-01	18.2642	24.029661	-0.000817	-8.172939	-2.769067	-0.065535
 458	2.2850e-01	18.2899	23.956844	-0.000182	-1.816209	-0.615348	-0.014563
 459	2.2900e-01	18.3412	24.357338	0.000999	9.989147	3.384415	0.080099
 460	2.2950e-01	18.3925	24.357338	0.000000	0.000000	0.000000	0.000000
 461	2.3000e-01	18.4246	24.320929	-0.000091	-0.908104	-0.307674	-0.007282
 462	2.3050e-01	18.4599	24.466564	0.000363	3.632417	1.230696	0.029127
 463	2.3100e-01	18.5096	24.721424	0.000636	6.356730	2.153718	0.050972
 464	2.3150e-01	18.5770	25.012692	0.000726	7.264834	2.461392	0.058254
 465	2.3200e-01	18.5770	25.049101	-0.000091	-0.908104	-0.307674	0.007282
 466	2.3250e-01	18.6251	25.158327	0.000272	2.724313	0.923022	0.021845
 467	2.3300e-01	18.6669	25.012692	-0.000363	-3.632417	-1.230696	-0.029127
 468	2.3350e-01	18.7102	25.158327	0.000363	3.632417	1.230696	0.029127
 469	2.3400e-01	18.7439	25.231144	0.000182	1.816209	0.615348	0.014563
 470	2.3450e-01	18.7936	25.449595	0.000545	5.448626	1.846044	0.043690
 471	2.3500e-01	18.8112	25.340370	-0.000272	-2.724313	-0.923022	-0.021845
 472	2.3550e-01	18.8722	25.668047	0.000817	8.172939	2.769067	0.065535
 473	2.3600e-01	18.9267	25.558821	-0.000272	-2.724313	-0.923022	-0.021845
 474	2.3650e-01	18.9733	25.522412	-0.000091	-0.908104	-0.307674	-0.007282
 475	2.3700e-01	18.9861	25.704455	0.000454	4.540521	1.538370	0.036409
 476	2.3750e-01	19.0246	25.922907	0.000545	5.448626	1.846044	0.043690
 477	2.3800e-01	19.0727	26.250584	0.000817	8.172939	2.769067	0.065535
 478	2.3850e-01	19.1032	26.141358	-0.000272	-2.724313	-0.923022	-0.021845
 479	2.3900e-01	19.1513	26.432627	0.000726	7.264834	2.461392	0.058254
 480	2.3950e-01	19.1882	26.141358	-0.000726	-7.264834	-2.461392	-0.058254
 481	2.4000e-01	19.2251	26.359810	0.000545	5.448626	1.846044	0.043690
 482	2.4050e-01	19.2556	26.323401	-0.000091	-0.908104	-0.307674	-0.007282
 483	2.4100e-01	19.3198	26.469035	0.000363	3.632417	1.230696	0.029127
 484	2.4150e-01	19.3711	26.578261	0.000272	2.724313	0.923022	0.021845
 485	2.4200e-01	19.4016	26.651078	0.000182	1.816209	0.615348	0.014563
 486	2.4250e-01	19.4337	26.614670	-0.000091	-0.908104	-0.307674	-0.007282
 487	2.4300e-01	19.4690	27.015164	0.000999	9.989147	3.384415	0.080099
 488	2.4350e-01	19.5203	27.124390	0.000272	2.724313	0.923022	0.021845
 489	2.4400e-01	19.5492	27.160798	0.000091	0.908104	0.307674	0.007282
 490	2.4450e-01	19.5845	27.415658	0.000636	6.356730	2.153718	0.050972
 491	2.4500e-01	19.6246	26.869530	-0.001362	-13.621564	-4.615111	-0.109226
 492	2.4550e-01	19.6679	27.051573	0.000454	4.540521	1.538370	0.036409
 493	2.4600e-01	19.7256	27.415658	0.000908	9.081043	3.076741	0.072817
 494	2.4650e-01	19.7658	27.779744	0.000908	9.081043	3.076741	0.072817
 495	2.4700e-01	19.7834	27.415658	-0.000908	-9.081043	-3.076741	-0.072817
 496	2.4750e-01	19.8428	27.597701	0.000454	4.540521	1.538370	0.036409
 497	2.4800e-01	19.8780	27.634110	0.000091	0.908104	0.307674	0.007282
 498	2.4850e-01	19.9198	27.706927	0.000182	1.816209	0.615348	0.014563
 499	2.4900e-01	19.9534	27.852561	0.000363	3.632417	1.230696	0.029127
 500	2.4950e-01	19.9807	27.961787	0.000272	2.724313	0.923022	0.021845
 501	2.5000e-01	20.0272	27.925379	-0.000091	-0.908104	-0.307674	-0.007282
 502	2.5050e-01	19.9823	28.289464	-0.000908	-9.081043	-3.076741	0.072817
 503	2.5100e-01	19.9342	27.670518	0.001544	15.437773	5.230459	-0.123789
 504	2.5150e-01	19.8813	28.071013	-0.000999	-9.989147	-3.384415	0.080099
 505	2.5200e-01	19.8620	27.888970	0.000454	4.540521	1.538370	-0.036409
 506	2.5250e-01	19.8219	27.706927	0.000454	4.540521	1.538370	-0.036409
 507	2.5300e-01	19.7786	27.415658	0.000726	7.264834	2.461392	-0.058254
 508	2.5350e-01	19.7256	27.524884	-0.000272	-2.724313	-0.923022	0.021845
 509	2.5400e-01	19.6887	27.306433	0.000545	5.448626	1.846044	-0.043690
 510	2.5450e-01	19.6647	26.869530	0.001090	10.897251	3.692089	-0.087381
 511	2.5500e-01	19.6150	27.342841	-0.001181	-11.805356	-3.999763	0.094662
 512	2.5550e-01	19.5877	27.197207	0.000363	3.632417	1.230696	-0.029127
 513	2.5600e-01	19.5396	27.087981	0.000272	2.724313	0.923022	-0.021845
 514	2.5650e-01	19.4962	26.833121	0.000636	6.356730	2.153718	-0.050972
 515	2.5700e-01	19.4561	26.796713	0.000091	0.908104	0.307674	-0.007282
 516	2.5750e-01	19.4257	26.905938	-0.000272	-2.724313	-0.923022	0.021845
 517	2.5800e-01	19.3936	26.687487	0.000545	5.448626	1.846044	-0.043690
 518	2.5850e-01	19.3374	26.869530	-0.000454	-4.540521	-1.538370	0.036409
 519	2.5900e-01	19.2941	26.323401	0.001362	13.621564	4.615111	-0.109226
 520	2.5950e-01	19.2636	26.578261	-0.000636	-6.356730	-2.153718	0.050972
 521	2.6000e-01	19.2059	26.104950	0.001181	11.805356	3.999763	-0.094662
 522	2.6050e-01	19.1866	26.687487	-0.001453	-14.529668	-4.922785	0.116507
 523	2.6100e-01	19.1273	26.250584	0.001090	10.897251	3.692089	-0.087381
 524	2.6150e-01	19.1128	26.177767	0.000182	1.816209	0.615348	-0.014563
 525	2.6200e-01	19.0535	26.068541	0.000272	2.724313	0.923022	-0.021845
 526	2.6250e-01	19.0214	25.850090	0.000545	5.448626	1.846044	-0.043690
 527	2.6300e-01	18.9941	25.995724	-0.000363	-3.632417	-1.230696	0.029127
 528	2.6350e-01	18.9460	25.922907	0.000182	1.816209	0.615348	-0.014563
 529	2.6400e-01	18.8898	26.104950	-0.000454	-4.540521	-1.538370	0.036409
 530	2.6450e-01	18.8674	25.413187	0.001725	17.253981	5.845807	-0.138353
 531	2.6500e-01	18.8016	26.032133	-0.001544	-15.437773	-5.230459	0.123789
 532	2.6550e-01	18.7679	25.668047	0.000908	9.081043	3.076741	-0.072817
 533	2.6600e-01	18.7294	25.413187	0.000636	6.356730	2.153718	-0.050972
 534	2.6650e-01	18.7198	25.486004	-0.000182	-1.816209	-0.615348	0.014563
 535	2.6700e-01	18.6556	25.049101	0.001090	10.897251	3.692089	-0.087381
 536	2.6750e-01	18.6187	25.558821	-0.001271	-12.713460	-4.307437	0.101944
 537	2.6800e-01	18.5818	24.939875	0.001544	15.437773	5.230459	-0.123789
 538	2.6850e-01	18.5513	25.158327	-0.000545	-5.448626	-1.846044	0.043690
 539	2.6900e-01	18.5016	25.085510	0.000182	1.816209	0.615348	-0.014563
 540	2.6950e-01	18.4695	24.939875	0.000363	3.632417	1.230696	-0.029127
 541	2.7000e-01	18.4006	24.794241	0.000363	3.632417	1.230696	-0.029127
 542	2.7050e-01	18.3701	24.721424	0.000182	1.816209	0.615348	-0.014563
 543	2.7100e-01	18.3460	24.612198	0.000272	2.724313	0.923022	-0.021845
 544	2.7150e-01	18.2754	24.757832	-0.000363	-3.632417	-1.230696	0.029127
 545	2.7200e-01	18.2546	25.012692	-0.000636	-6.356730	-2.153718	0.050972
 546	2.7250e-01	18.2209	24.357338	0.001635	16.345877	5.538133	-0.131071
 547	2.7300e-01	18.1711	24.393747	-0.000091	-0.908104	-0.307674	0.007282
 548	2.7350e-01	18.1246	23.956844	0.001090	10.897251	3.692089	-0.087381
 549	2.7400e-01	18.1102	24.320929	-0.000908	-9.081043	-3.076741	0.072817
 550	2.7450e-01	18.0460	24.102478	0.000545	5.448626	1.846044	-0.043690
 551	2.7500e-01	18.0252	23.884026	0.000545	5.448626	1.846044	-0.043690
 552	2.7550e-01	17.9963	24.138887	-0.000636	-6.356730	-2.153718	0.050972
 553	2.7600e-01	17.9546	23.811209	0.000817	8.172939	2.769067	-0.065535
 554	2.7650e-01	17.9016	23.556349	0.000636	6.356730	2.153718	-0.050972
 555	2.7700e-01	17.8663	23.811209	-0.000636	-6.356730	-2.153718	0.050972
 556	2.7750e-01	17.8070	23.483532	0.000817	8.172939	2.769067	-0.065535
 557	2.7800e-01	17.7685	23.374306	0.000272	2.724313	0.923022	-0.021845
 558	2.7850e-01	17.7220	23.374306	-0.000000	-0.000000	-0.000000	0.000000
 559	2.7900e-01	17.7171	23.701984	-0.000817	-8.172939	-2.769067	0.065535
 560	2.7950e-01	17.6610	23.083038	0.001544	15.437773	5.230459	-0.123789
 561	2.8000e-01	17.6273	23.192264	-0.000272	-2.724313	-0.923022	0.021845
 562	2.8050e-01	17.5856	22.937403	0.000636	6.356730	2.153718	-0.050972
 563	2.8100e-01	17.5647	23.046629	-0.000272	-2.724313	-0.923022	0.021845
 564	2.8150e-01	17.4942	22.755361	0.000726	7.264834	2.461392	-0.058254
 565	2.8200e-01	17.4685	22.718952	0.000091	0.908104	0.307674	-0.007282
 566	2.8250e-01	17.4204	22.755361	-0.000091	-0.908104	-0.307674	0.007282
 567	2.8300e-01	17.3851	22.937403	-0.000454	-4.540521	-1.538370	0.036409
 568	2.8350e-01	17.3594	22.609726	0.000817	8.172939	2.769067	-0.065535
 569	2.8400e-01	17.2984	22.464092	0.000363	3.632417	1.230696	-0.029127
 570	2.8450e-01	17.2744	22.536909	-0.000182	-1.816209	-0.615348	0.014563
 571	2.8500e-01	17.2102	22.245641	0.000726	7.264834	2.461392	-0.058254
 572	2.8550e-01	17.1958	21.735920	0.001271	12.713460	4.307437	-0.101944
 573	2.8600e-01	17.1332	22.136415	-0.000999	-9.989147	-3.384415	0.080099
 574	2.8650e-01	17.1027	21.881555	0.000636	6.356730	2.153718	-0.050972
 575	2.8700e-01	17.0706	22.100006	-0.000545	-5.448626	-1.846044	0.043690
 576	2.8750e-01	17.0161	22.100006	-0.000000	-0.000000	-0.000000	0.000000
 577	2.8800e-01	16.9792	21.808738	0.000726	7.264834	2.461392	-0.058254
 578	2.8850e-01	16.9503	21.699512	0.000272	2.724313	0.923022	-0.021845
 579	2.8900e-01	16.8942	21.553878	0.000363	3.632417	1.230696	-0.029127
 580	2.8950e-01	16.8862	21.590286	-0.000091	-0.908104	-0.307674	0.007282
 581	2.9000e-01	16.8252	21.299018	0.000726	7.264834	2.461392	-0.058254
 582	2.9050e-01	16.7835	21.299018	-0.000000	-0.000000	-0.000000	0.000000
 583	2.9100e-01	16.7354	21.226200	0.000182	1.816209	0.615348	-0.014563
 584	2.9150e-01	16.7033	21.226200	-0.000000	-0.000000	-0.000000	0.000000
 585	2.9200e-01	16.6551	21.371835	-0.000363	-3.632417	-1.230696	0.029127
 586	2.9250e-01	16.6311	20.570846	0.001998	19.978294	6.768829	-0.160198
 587	2.9300e-01	16.5846	21.044157	-0.001181	-11.805356	-3.999763	0.094662
 588	2.9350e-01	16.5396	21.116975	-0.000182	-1.816209	-0.615348	0.014563
 589	2.9400e-01	16.4979	20.752889	0.000908	9.081043	3.076741	-0.072817
 590	2.9450e-01	16.4530	20.643663	0.000272	2.724313	0.923022	-0.021845
 591	2.9500e-01	16.4289	20.352395	0.000726	7.264834	2.461392	-0.058254
 592	2.9550e-01	16.3953	20.862115	-0.001271	-12.713460	-4.307437	0.101944
 593	2.9600e-01	16.3343	20.024717	0.002089	20.886398	7.076503	-0.167479
 594	2.9650e-01	16.2926	20.643663	-0.001544	-15.437773	-5.230459	0.123789
 595	2.9700e-01	16.2814	20.352395	0.000726	7.264834	2.461392	-0.058254
 596	2.9750e-01	16.2236	20.279577	0.000182	1.816209	0.615348	-0.014563
 597	2.9800e-01	16.1883	20.170352	0.000272	2.724313	0.923022	-0.021845
 598	2.9850e-01	16.1642	20.243169	-0.000182	-1.816209	-0.615348	0.014563
 599	2.9900e-01	16.1017	19.879083	0.000908	9.081043	3.076741	-0.072817
 600	2.9950e-01	16.0584	20.061126	-0.000454	-4.540521	-1.538370	0.036409
 601	3.0000e-01	16.0311	19.624223	0.001090	10.897251	3.692089	-0.087381
 602	3.0050e-01	15.9782	20.097534	-0.001181	-11.805356	-3.999763	0.094662
 603	3.0100e-01	15.9461	19.332954	0.001907	19.070190	6.461155	-0.152916
 604	3.0150e-01	15.8883	19.442180	-0.000272	-2.724313	-0.923022	0.021845
 605	3.0200e-01	15.8530	19.442180	-0.000000	-0.000000	-0.000000	0.000000
 606	3.0250e-01	15.8290	19.150911	0.000726	7.264834	2.461392	-0.058254
 607	3.0300e-01	15.7969	19.114503	0.000091	0.908104	0.307674	-0.007282
 608	3.0350e-01	15.7455	18.750417	0.000908	9.081043	3.076741	-0.072817
 609	3.0400e-01	15.7038	19.114503	-0.000908	-9.081043	-3.076741	0.072817
 610	3.0450e-01	15.6669	18.823234	0.000726	7.264834	2.461392	-0.058254
 611	3.0500e-01	15.6140	18.896051	-0.000182	-1.816209	-0.615348	0.014563
 612	3.0550e-01	15.5723	18.714009	0.000454	4.540521	1.538370	-0.036409
 613	3.0600e-01	15.5354	18.277106	0.001090	10.897251	3.692089	-0.087381
 614	3.0650e-01	15.4889	18.495557	-0.000545	-5.448626	-1.846044	0.043690
 615	3.0700e-01	15.4712	18.531966	-0.000091	-0.908104	-0.307674	0.007282
 616	3.0750e-01	15.4135	18.677600	-0.000363	-3.632417	-1.230696	0.029127
 617	3.0800e-01	15.3573	18.131471	0.001362	13.621564	4.615111	-0.109226
 618	3.0850e-01	15.3300	18.313514	-0.000454	-4.540521	-1.538370	0.036409
 619	3.0900e-01	15.2787	18.022246	0.000726	7.264834	2.461392	-0.058254
 620	3.0950e-01	15.2514	18.240697	-0.000545	-5.448626	-1.846044	0.043690
 621	3.1000e-01	15.2274	18.058654	0.000454	4.540521	1.538370	-0.036409
 622	3.1050e-01	15.1648	17.694568	0.000908	9.081043	3.076741	-0.072817
 623	3.1100e-01	15.1279	17.767386	-0.000182	-1.816209	-0.615348	0.014563
 624	3.1150e-01	15.1039	17.803794	-0.000091	-0.908104	-0.307674	0.007282
 625	3.1200e-01	15.0830	17.621751	0.000454	4.540521	1.538370	-0.036409
 626	3.1250e-01	15.0108	17.476117	0.000363	3.632417	1.230696	-0.029127
 627	3.1300e-01	14.9675	17.330483	0.000363	3.632417	1.230696	-0.029127
 628	3.1350e-01	14.9691	17.294074	-0.000091	-0.908104	-0.307674	-0.007282
 629	3.1400e-01	14.9162	17.184848	0.000272	2.724313	0.923022	-0.021845
 630	3.1450e-01	14.8712	17.039214	0.000363	3.632417	1.230696	-0.029127
 631	3.1500e-01	14.8103	17.148440	-0.000272	-2.724313	-0.923022	0.021845
 632	3.1550e-01	14.7782	17.294074	-0.000363	-3.632417	-1.230696	0.029127
 633	3.1600e-01	14.7333	16.565903	0.001816	18.162086	6.153481	-0.145634
 634	3.1650e-01	14.6948	16.929988	-0.000908	-9.081043	-3.076741	0.072817
 635	3.1700e-01	14.6643	16.784354	0.000363	3.632417	1.230696	-0.029127
 636	3.1750e-01	14.6226	16.347451	0.001090	10.897251	3.692089	-0.087381
 637	3.1800e-01	14.5953	16.165408	0.000454	4.540521	1.538370	-0.036409
 638	3.1850e-01	14.5408	16.383860	-0.000545	-5.448626	-1.846044	0.043690
 639	3.1900e-01	14.4830	16.929988	-0.001362	-13.621564	-4.615111	0.109226
 640	3.1950e-01	14.4846	16.056182	-0.002179	-21.794503	-7.384177	-0.174761
 641	3.2000e-01	14.4317	16.274634	-0.000545	-5.448626	-1.846044	0.043690
 642	3.2050e-01	14.3948	16.165408	0.000272	2.724313	0.923022	-0.021845
 643	3.2100e-01	14.3194	15.910548	0.000636	6.356730	2.153718	-0.050972
 644	3.2150e-01	14.3033	15.655688	0.000636	6.356730	2.153718	-0.050972
 645	3.2200e-01	14.2729	16.019774	-0.000908	-9.081043	-3.076741	0.072817
 646	3.2250e-01	14.2311	15.582871	0.001090	10.897251	3.692089	-0.087381
 647	3.2300e-01	14.1830	15.437237	0.000363	3.632417	1.230696	-0.029127
 648	3.2350e-01	14.1445	15.218785	0.000545	5.448626	1.846044	-0.043690
 649	3.2400e-01	14.1092	15.182377	0.000091	0.908104	0.307674	-0.007282
 650	3.2450e-01	14.0611	15.073151	0.000272	2.724313	0.923022	-0.021845
 651	3.2500e-01	14.0306	14.927517	0.000363	3.632417	1.230696	-0.029127
 652	3.2550e-01	13.9825	15.073151	-0.000363	-3.632417	-1.230696	0.029127
 653	3.2600e-01	13.9360	15.291602	-0.000545	-5.448626	-1.846044	0.043690
 654	3.2650e-01	13.9151	14.709065	0.001453	14.529668	4.922785	-0.116507
 655	3.2700e-01	13.8526	14.818291	-0.000272	-2.724313	-0.923022	0.021845
 656	3.2750e-01	13.8044	14.672657	0.000363	3.632417	1.230696	-0.029127
 657	3.2800e-01	13.7707	14.599839	0.000182	1.816209	0.615348	-0.014563
 658	3.2850e-01	13.7386	14.126528	0.001181	11.805356	3.999763	-0.094662
 659	3.2900e-01	13.7162	14.235754	-0.000272	-2.724313	-0.923022	0.021845
 660	3.2950e-01	13.6616	14.490614	-0.000636	-6.356730	-2.153718	0.050972
 661	3.3000e-01	13.6280	14.199345	0.000726	7.264834	2.461392	-0.058254
 662	3.3050e-01	13.5686	13.726034	0.001181	11.805356	3.999763	-0.094662
 663	3.3100e-01	13.5285	14.162936	-0.001090	-10.897251	-3.692089	0.087381
 664	3.3150e-01	13.5012	14.235754	-0.000182	-1.816209	-0.615348	0.014563
 665	3.3200e-01	13.4499	13.908076	0.000817	8.172939	2.769067	-0.065535
 666	3.3250e-01	13.4034	13.762442	0.000363	3.632417	1.230696	-0.029127
 667	3.3300e-01	13.3793	13.289131	0.001181	11.805356	3.999763	-0.094662
 668	3.3350e-01	13.3360	13.616808	-0.000817	-8.172939	-2.769067	0.065535
 669	3.3400e-01	13.2959	13.434765	0.000454	4.540521	1.538370	-0.036409
 670	3.3450e-01	13.2798	13.762442	-0.000817	-8.172939	-2.769067	0.065535
 671	3.3500e-01	13.2109	13.216313	0.001362	13.621564	4.615111	-0.109226
 672	3.3550e-01	13.1627	13.507582	-0.000726	-7.264834	-2.461392	0.058254
 673	3.3600e-01	13.1515	13.107088	0.000999	9.989147	3.384415	-0.080099
 674	3.3650e-01	13.1050	13.216313	-0.000272	-2.724313	-0.923022	0.021845
 675	3.3700e-01	13.0665	12.415325	0.001998	19.978294	6.768829	-0.160198
 676	3.3750e-01	13.0216	12.743002	-0.000817	-8.172939	-2.769067	0.065535
 677	3.3800e-01	12.9734	12.779411	-0.000091	-0.908104	-0.307674	0.007282
 678	3.3850e-01	12.9654	12.488142	0.000726	7.264834	2.461392	-0.058254
 679	3.3900e-01	12.9157	12.415325	0.000182	1.816209	0.615348	-0.014563
 680	3.3950e-01	12.8692	12.233282	0.000454	4.540521	1.538370	-0.036409
 681	3.4000e-01	12.8435	12.670185	-0.001090	-10.897251	-3.692089	0.087381
 682	3.4050e-01	12.7761	11.942013	0.001816	18.162086	6.153481	-0.145634
 683	3.4100e-01	12.7456	12.233282	-0.000726	-7.264834	-2.461392	0.058254
 684	3.4150e-01	12.7151	12.306099	-0.000182	-1.816209	-0.615348	0.014563
 685	3.4200e-01	12.6734	11.796379	0.001271	12.713460	4.307437	-0.101944
 686	3.4250e-01	12.6430	12.014830	-0.000545	-5.448626	-1.846044	0.043690
 687	3.4300e-01	12.5788	11.614336	0.000999	9.989147	3.384415	-0.080099
 688	3.4350e-01	12.5419	11.796379	-0.000454	-4.540521	-1.538370	0.036409
 689	3.4400e-01	12.5066	10.886165	0.002270	22.702607	7.691851	-0.182043
 690	3.4450e-01	12.4777	11.250250	-0.000908	-9.081043	-3.076741	0.072817
 691	3.4500e-01	12.4232	11.250250	-0.000000	-0.000000	-0.000000	0.000000
 692	3.4550e-01	12.3751	11.468702	-0.000545	-5.448626	-1.846044	0.043690
 693	3.4600e-01	12.3430	11.104616	0.000908	9.081043	3.076741	-0.072817
 694	3.4650e-01	12.3414	11.141025	-0.000091	-0.908104	-0.307674	0.007282
 695	3.4700e-01	12.2820	10.704122	0.001090	10.897251	3.692089	-0.087381
 696	3.4750e-01	12.2259	10.522079	0.000454	4.540521	1.538370	-0.036409
 697	3.4800e-01	12.1809	10.813347	-0.000726	-7.264834	-2.461392	0.058254
 698	3.4850e-01	12.1344	10.958982	-0.000363	-3.632417	-1.230696	0.029127
 699	3.4900e-01	12.0991	10.558487	0.000999	9.989147	3.384415	-0.080099
 700	3.4950e-01	12.0574	10.485670	0.000182	1.816209	0.615348	-0.014563
 701	3.5000e-01	12.0061	10.230810	0.000636	6.356730	2.153718	-0.050972
 702	3.5050e-01	11.9900	10.230810	-0.000000	-0.000000	-0.000000	0.000000
 703	3.5100e-01	11.9596	10.085176	0.000363	3.632417	1.230696	-0.029127
 704	3.5150e-01	11.8906	9.830316	0.000636	6.356730	2.153718	-0.050972
 705	3.5200e-01	11.8489	9.830316	-0.000000	-0.000000	-0.000000	0.000000
 706	3.5250e-01	11.8264	9.757499	0.000182	1.816209	0.615348	-0.014563
 707	3.5300e-01	11.7783	10.121584	-0.000908	-9.081043	-3.076741	0.072817
 708	3.5350e-01	11.7430	9.502639	0.001544	15.437773	5.230459	-0.123789
 709	3.5400e-01	11.7045	9.429821	0.000182	1.816209	0.615348	-0.014563
 710	3.5450e-01	11.6628	9.466230	-0.000091	-0.908104	-0.307674	0.007282
 711	3.5500e-01	11.6195	9.211370	0.000636	6.356730	2.153718	-0.050972
 712	3.5550e-01	11.6002	9.029327	0.000454	4.540521	1.538370	-0.036409
 713	3.5600e-01	11.5264	9.174961	-0.000363	-3.632417	-1.230696	0.029127
 714	3.5650e-01	11.4975	9.174961	-0.000000	-0.000000	-0.000000	0.000000
 715	3.5700e-01	11.4558	8.592424	0.001453	14.529668	4.922785	-0.116507
 716	3.5750e-01	11.4189	8.519607	0.000182	1.816209	0.615348	-0.014563
 717	3.5800e-01	11.3660	8.847284	-0.000817	-8.172939	-2.769067	0.065535
 718	3.5850e-01	11.3435	8.628833	0.000545	5.448626	1.846044	-0.043690
 719	3.5900e-01	11.3082	8.337564	0.000726	7.264834	2.461392	-0.058254
 720	3.5950e-01	11.2794	8.665241	-0.000817	-8.172939	-2.769067	0.065535
 721	3.6000e-01	11.2377	7.864253	0.001998	19.978294	6.768829	-0.160198
 722	3.6050e-01	11.1767	8.119113	-0.000636	-6.356730	-2.153718	0.050972
 723	3.6100e-01	11.1254	8.301156	-0.000454	-4.540521	-1.538370	0.036409
 724	3.6150e-01	11.1125	8.082704	0.000545	5.448626	1.846044	-0.043690
 725	3.6200e-01	11.0692	7.864253	0.000545	5.448626	1.846044	-0.043690
 726	3.6250e-01	11.0371	7.500167	0.000908	9.081043	3.076741	-0.072817
 727	3.6300e-01	10.9842	7.937070	-0.001090	-10.897251	-3.692089	0.087381
 728	3.6350e-01	10.9264	7.572984	0.000908	9.081043	3.076741	-0.072817
 729	3.6400e-01	10.8976	7.354533	0.000545	5.448626	1.846044	-0.043690
 730	3.6450e-01	10.8623	7.536575	-0.000454	-4.540521	-1.538370	0.036409
 731	3.6500e-01	10.8125	7.390941	0.000363	3.632417	1.230696	-0.029127
 732	3.6550e-01	10.7628	6.881221	0.001271	12.713460	4.307437	-0.101944
 733	3.6600e-01	10.7516	7.063264	-0.000454	-4.540521	-1.538370	0.036409
 734	3.6650e-01	10.7018	7.026855	0.000091	0.908104	0.307674	-0.007282
 735	3.6700e-01	10.6553	6.917630	0.000272	2.724313	0.923022	-0.021845
 736	3.6750e-01	10.6264	6.371501	0.001362	13.621564	4.615111	-0.109226
 737	3.6800e-01	10.5847	6.735587	-0.000908	-9.081043	-3.076741	0.072817
 738	3.6850e-01	10.5270	6.808404	-0.000182	-1.816209	-0.615348	0.014563
 739	3.6900e-01	10.4997	6.371501	0.001090	10.897251	3.692089	-0.087381
 740	3.6950e-01	10.4692	6.371501	-0.000000	-0.000000	-0.000000	0.000000
 741	3.7000e-01	10.4259	6.189458	0.000454	4.540521	1.538370	-0.036409
 742	3.7050e-01	10.3730	6.080232	0.000272	2.724313	0.923022	-0.021845
 743	3.7100e-01	10.3425	6.116641	-0.000091	-0.908104	-0.307674	0.007282
 744	3.7150e-01	10.3024	5.716147	0.000999	9.989147	3.384415	-0.080099
 745	3.7200e-01	10.2527	6.007415	-0.000726	-7.264834	-2.461392	0.058254
 746	3.7250e-01	10.2142	5.679738	0.000817	8.172939	2.769067	-0.065535
 747	3.7300e-01	10.1773	6.189458	-0.001271	-12.713460	-4.307437	0.101944
 748	3.7350e-01	10.1211	5.716147	0.001181	11.805356	3.999763	-0.094662
 749	3.7400e-01	10.0922	5.279244	0.001090	10.897251	3.692089	-0.087381
 750	3.7450e-01	10.0585	5.461287	-0.000454	-4.540521	-1.538370	0.036409
 751	3.7500e-01	10.0008	5.279244	0.000454	4.540521	1.538370	-0.036409
 752	3.7550e-01	9.9751	5.133609	0.000363	3.632417	1.230696	-0.029127
 753	3.7600e-01	9.9382	5.570512	-0.001090	-10.897251	-3.692089	0.087381
 754	3.7650e-01	9.9013	4.769524	0.001998	19.978294	6.768829	-0.160198
 755	3.7700e-01	9.8773	4.587481	0.000454	4.540521	1.538370	-0.036409
 756	3.7750e-01	9.8291	4.987975	-0.000999	-9.989147	-3.384415	0.080099
 757	3.7800e-01	9.7746	4.259804	0.001816	18.162086	6.153481	-0.145634
 758	3.7850e-01	9.7200	4.478255	-0.000545	-5.448626	-1.846044	0.043690
 759	3.7900e-01	9.7168	4.441846	0.000091	0.908104	0.307674	-0.007282
 760	3.7950e-01	9.6703	4.332621	0.000272	2.724313	0.923022	-0.021845
 761	3.8000e-01	9.6110	4.223395	0.000272	2.724313	0.923022	-0.021845
 762	3.8050e-01	9.5853	4.041352	0.000454	4.540521	1.538370	-0.036409
 763	3.8100e-01	9.5388	3.895718	0.000363	3.632417	1.230696	-0.029127
 764	3.8150e-01	9.5227	3.677266	0.000545	5.448626	1.846044	-0.043690
 765	3.8200e-01	9.4521	3.531632	0.000363	3.632417	1.230696	-0.029127
 766	3.8250e-01	9.4441	3.786492	-0.000636	-6.356730	-2.153718	0.050972
 767	3.8300e-01	9.3832	3.276772	0.001271	12.713460	4.307437	-0.101944
 768	3.8350e-01	9.3414	3.458815	-0.000454	-4.540521	-1.538370	0.036409
 769	3.8400e-01	9.3013	3.167546	0.000726	7.264834	2.461392	-0.058254
 770	3.8450e-01	9.2516	3.385998	-0.000545	-5.448626	-1.846044	0.043690
 771	3.8500e-01	9.2115	3.349589	0.000091	0.908104	0.307674	-0.007282
 772	3.8550e-01	9.1554	3.021912	0.000817	8.172939	2.769067	-0.065535
 773	3.8600e-01	9.1361	3.349589	-0.000817	-8.172939	-2.769067	0.065535
 774	3.8650e-01	9.1217	2.803460	0.001362	13.621564	4.615111	-0.109226
 775	3.8700e-01	9.0463	2.512192	0.000726	7.264834	2.461392	-0.058254
 776	3.8750e-01	9.0286	2.512192	-0.000000	-0.000000	-0.000000	0.000000
 777	3.8800e-01	8.9821	2.184515	0.000817	8.172939	2.769067	-0.065535
 778	3.8850e-01	8.9324	2.330149	-0.000363	-3.632417	-1.230696	0.029127
 779	3.8900e-01	8.9147	2.839869	-0.001271	-12.713460	-4.307437	0.101944
 780	3.8950e-01	8.8762	1.856837	0.002452	24.518816	8.307200	-0.196606
 781	3.9000e-01	8.8329	2.038880	-0.000454	-4.540521	-1.538370	0.036409
 782	3.9050e-01	8.7960	2.075289	-0.000091	-0.908104	-0.307674	0.007282
 783	3.9100e-01	8.7639	1.529160	0.001362	13.621564	4.615111	-0.109226
 784	3.9150e-01	8.7030	1.784020	-0.000636	-6.356730	-2.153718	0.050972
 785	3.9200e-01	8.6500	1.492752	0.000726	7.264834	2.461392	-0.058254
 786	3.9250e-01	8.6195	1.456343	0.000091	0.908104	0.307674	-0.007282
 787	3.9300e-01	8.5875	1.092257	0.000908	9.081043	3.076741	-0.072817
 788	3.9350e-01	8.5249	1.383526	-0.000726	-7.264834	-2.461392	0.058254
 789	3.9400e-01	8.5249	1.347117	0.000091	0.908104	0.307674	-0.007282
 790	3.9450e-01	8.4607	0.910214	0.001090	10.897251	3.692089	-0.087381
 791	3.9500e-01	8.4206	1.092257	-0.000454	-4.540521	-1.538370	0.036409
 792	3.9550e-01	8.3950	0.764580	0.000817	8.172939	2.769067	-0.065535
 793	3.9600e-01	8.3500	0.582537	0.000454	4.540521	1.538370	-0.036409
 794	3.9650e-01	8.2891	0.800989	-0.000545	-5.448626	-1.846044	0.043690
 795	3.9700e-01	8.2570	0.400494	0.000999	9.989147	3.384415	-0.080099
 796	3.9750e-01	8.2153	0.509720	-0.000272	-2.724313	-0.923022	0.021845
 797	3.9800e-01	8.1752	0.145634	0.000908	9.081043	3.076741	-0.072817
 798	3.9850e-01	8.1495	-0.000000	0.000363	3.632417	1.230696	-0.029127
 799	3.9900e-01	8.1190	0.036409	-0.000091	-0.908104	-0.307674	0.007282
 800	3.9950e-01	8.0725	0.145634	-0.000272	-2.724313	-0.923022	0.021845
 801	4.0000e-01	8.0131	-0.036409	0.000454	4.540521	1.538370	-0.036409
 802	4.0050e-01	7.9907	-0.582537	0.001362	13.621564	4.615111	-0.109226
 803	4.0100e-01	7.9313	-0.837397	0.000636	6.356730	2.153718	-0.050972
 804	4.0150e-01	7.8784	-0.254860	-0.001453	-14.529668	-4.922785	0.116507
 805	4.0200e-01	7.8736	-0.618946	0.000908	9.081043	3.076741	-0.072817
 806	4.0250e-01	7.8351	-0.400494	-0.000545	-5.448626	-1.846044	0.043690
 807	4.0300e-01	7.7773	-0.764580	0.000908	9.081043	3.076741	-0.072817
 808	4.0350e-01	7.7372	-1.419935	0.001635	16.345877	5.538133	-0.131071
 809	4.0400e-01	7.7099	-1.128666	-0.000726	-7.264834	-2.461392	0.058254
 810	4.0450e-01	7.6698	-0.910214	-0.000545	-5.448626	-1.846044	0.043690
 811	4.0500e-01	7.6249	-1.456343	0.001362	13.621564	4.615111	-0.109226
 812	4.0550e-01	7.5784	-1.456343	-0.000000	-0.000000	-0.000000	0.000000
 813	4.0600e-01	7.5351	-1.492752	0.000091	0.908104	0.307674	-0.007282
 814	4.0650e-01	7.5062	-1.674795	0.000454	4.540521	1.538370	-0.036409
 815	4.0700e-01	7.4677	-1.747612	0.000182	1.816209	0.615348	-0.014563
 816	4.0750e-01	7.4132	-1.966063	0.000545	5.448626	1.846044	-0.043690
 817	4.0800e-01	7.3779	-1.601977	-0.000908	-9.081043	-3.076741	0.072817
 818	4.0850e-01	7.3297	-2.148106	0.001362	13.621564	4.615111	-0.109226
 819	4.0900e-01	7.3249	-1.820429	-0.000817	-8.172939	-2.769067	0.065535
 820	4.0950e-01	7.2784	-2.366558	0.001362	13.621564	4.615111	-0.109226
 821	4.1000e-01	7.2239	-2.585009	0.000545	5.448626	1.846044	-0.043690
 822	4.1050e-01	7.1805	-2.657826	0.000182	1.816209	0.615348	-0.014563
 823	4.1100e-01	7.1228	-2.730643	0.000182	1.816209	0.615348	-0.014563
 824	4.1150e-01	7.1051	-2.839869	0.000272	2.724313	0.923022	-0.021845
 825	4.1200e-01	7.0522	-3.131138	0.000726	7.264834	2.461392	-0.058254
 826	4.1250e-01	7.0297	-2.912686	-0.000545	-5.448626	-1.846044	0.043690
 827	4.1300e-01	6.9864	-3.203955	0.000726	7.264834	2.461392	-0.058254
 828	4.1350e-01	6.9303	-3.276772	0.000182	1.816209	0.615348	-0.014563
 829	4.1400e-01	6.9094	-3.131138	-0.000363	-3.632417	-1.230696	0.029127
 830	4.1450e-01	6.8645	-3.349589	0.000545	5.448626	1.846044	-0.043690
 831	4.1500e-01	6.8132	-3.458815	0.000272	2.724313	0.923022	-0.021845
 832	4.1550e-01	6.7811	-3.859309	0.000999	9.989147	3.384415	-0.080099
 833	4.1600e-01	6.7314	-3.859309	-0.000000	-0.000000	-0.000000	0.000000
 834	4.1650e-01	6.7282	-3.932126	0.000182	1.816209	0.615348	-0.014563
 835	4.1700e-01	6.6592	-4.114169	0.000454	4.540521	1.538370	-0.036409
 836	4.1750e-01	6.6126	-3.968535	-0.000363	-3.632417	-1.230696	0.029127
 837	4.1800e-01	6.5806	-4.259804	0.000726	7.264834	2.461392	-0.058254
 838	4.1850e-01	6.5469	-4.150578	-0.000272	-2.724313	-0.923022	0.021845
 839	4.1900e-01	6.5036	-4.769524	0.001544	15.437773	5.230459	-0.123789
 840	4.1950e-01	6.4923	-4.951566	0.000454	4.540521	1.538370	-0.036409
 841	4.2000e-01	6.4250	-4.915158	-0.000091	-0.908104	-0.307674	0.007282
 842	4.2050e-01	6.4057	-4.551072	-0.000908	-9.081043	-3.076741	0.072817
 843	4.2100e-01	6.3496	-4.878749	0.000817	8.172939	2.769067	-0.065535
 844	4.2150e-01	6.3111	-5.206427	0.000817	8.172939	2.769067	-0.065535
 845	4.2200e-01	6.2677	-5.279244	0.000182	1.816209	0.615348	-0.014563
 846	4.2250e-01	6.2276	-5.279244	-0.000000	-0.000000	-0.000000	0.000000
 847	4.2300e-01	6.1843	-5.716147	0.001090	10.897251	3.692089	-0.087381
 848	4.2350e-01	6.1378	-5.461287	-0.000636	-6.356730	-2.153718	0.050972
 849	4.2400e-01	6.0945	-5.606921	0.000363	3.632417	1.230696	-0.029127
 850	4.2450e-01	6.0496	-5.388469	-0.000545	-5.448626	-1.846044	0.043690
 851	4.2500e-01	6.0095	-5.825372	0.001090	10.897251	3.692089	-0.087381
 852	4.2550e-01	5.9822	-5.825372	-0.000000	-0.000000	-0.000000	0.000000
 853	4.2600e-01	5.9389	-5.934598	0.000272	2.724313	0.923022	-0.021845
 854	4.2650e-01	5.8763	-6.080232	0.000363	3.632417	1.230696	-0.029127
 855	4.2700e-01	5.8410	-6.444318	0.000908	9.081043	3.076741	-0.072817
 856	4.2750e-01	5.8202	-6.626361	0.000454	4.540521	1.538370	-0.036409
 857	4.2800e-01	5.8057	-6.553544	-0.000182	-1.816209	-0.615348	0.014563
 858	4.2850e-01	5.7480	-6.808404	0.000636	6.356730	2.153718	-0.050972
 859	4.2900e-01	5.6966	-6.917630	0.000272	2.724313	0.923022	-0.021845
 860	4.2950e-01	5.6790	-7.099673	0.000454	4.540521	1.538370	-0.036409
 861	4.3000e-01	5.6100	-6.881221	-0.000545	-5.448626	-1.846044	0.043690
 862	4.3050e-01	5.5811	-7.136081	0.000636	6.356730	2.153718	-0.050972
 863	4.3100e-01	5.5346	-7.354533	0.000545	5.448626	1.846044	-0.043690
 864	4.3150e-01	5.4977	-7.390941	0.000091	0.908104	0.307674	-0.007282
 865	4.3200e-01	5.4512	-7.354533	-0.000091	-0.908104	-0.307674	0.007282
 866	4.3250e-01	5.4191	-7.645801	0.000726	7.264834	2.461392	-0.058254
 867	4.3300e-01	5.3806	-7.973478	0.000817	8.172939	2.769067	-0.065535
 868	4.3350e-01	5.3549	-7.718618	-0.000636	-6.356730	-2.153718	0.050972
 869	4.3400e-01	5.2972	-7.718618	-0.000000	-0.000000	-0.000000	0.000000
 870	4.3450e-01	5.2651	-8.337564	0.001544	15.437773	5.230459	-0.123789
 871	4.3500e-01	5.2362	-8.155521	-0.000454	-4.540521	-1.538370	0.036409
 872	4.3550e-01	5.1640	-8.446790	0.000726	7.264834	2.461392	-0.058254
 873	4.3600e-01	5.1448	-8.446790	-0.000000	-0.000000	-0.000000	0.000000
 874	4.3650e-01	5.0918	-8.665241	0.000545	5.448626	1.846044	-0.043690
 875	4.3700e-01	5.0662	-8.810876	0.000363	3.632417	1.230696	-0.029127
 876	4.3750e-01	5.0229	-8.701650	-0.000272	-2.724313	-0.923022	0.021845
 877	4.3800e-01	4.9924	-8.847284	0.000363	3.632417	1.230696	-0.029127
 878	4.3850e-01	4.9394	-8.956510	0.000272	2.724313	0.923022	-0.021845
 879	4.3900e-01	4.9009	-9.211370	0.000636	6.356730	2.153718	-0.050972
 880	4.3950e-01	4.8384	-9.648273	0.001090	10.897251	3.692089	-0.087381
 881	4.4000e-01	4.8159	-9.174961	-0.001181	-11.805356	-3.999763	0.094662
 882	4.4050e-01	4.7662	-9.174961	-0.000000	-0.000000	-0.000000	0.000000
 883	4.4100e-01	4.7245	-9.757499	0.001453	14.529668	4.922785	-0.116507
 884	4.4150e-01	4.6956	-9.903133	0.000363	3.632417	1.230696	-0.029127
 885	4.4200e-01	4.6459	-10.340036	0.001090	10.897251	3.692089	-0.087381
 886	4.4250e-01	4.6410	-9.866724	-0.001181	-11.805356	-3.999763	0.094662
 887	4.4300e-01	4.5913	-10.485670	0.001544	15.437773	5.230459	-0.123789
 888	4.4350e-01	4.5448	-10.340036	-0.000363	-3.632417	-1.230696	0.029127
 889	4.4400e-01	4.4870	-10.085176	-0.000636	-6.356730	-2.153718	0.050972
 890	4.4450e-01	4.4389	-10.922573	0.002089	20.886398	7.076503	-0.167479
 891	4.4500e-01	4.4293	-10.813347	-0.000272	-2.724313	-0.923022	0.021845
 892	4.4550e-01	4.3924	-10.886165	0.000182	1.816209	0.615348	-0.014563
 893	4.4600e-01	4.3314	-10.776939	-0.000272	-2.724313	-0.923022	0.021845
 894	4.4650e-01	4.2913	-11.177433	0.000999	9.989147	3.384415	-0.080099
 895	4.4700e-01	4.2801	-11.432293	0.000636	6.356730	2.153718	-0.050972
 896	4.4750e-01	4.2400	-11.468702	0.000091	0.908104	0.307674	-0.007282
 897	4.4800e-01	4.1710	-11.432293	-0.000091	-0.908104	-0.307674	0.007282
 898	4.4850e-01	4.1534	-11.759970	0.000817	8.172939	2.769067	-0.065535
 899	4.4900e-01	4.0860	-11.723562	-0.000091	-0.908104	-0.307674	0.007282
 900	4.4950e-01	4.0491	-12.014830	0.000726	7.264834	2.461392	-0.058254
 901	4.5000e-01	4.0234	-11.869196	-0.000363	-3.632417	-1.230696	0.029127
 902	4.5050e-01	4.0058	-12.087648	0.000545	5.448626	1.846044	-0.043690
 903	4.5100e-01	3.9400	-12.342508	0.000636	6.356730	2.153718	-0.050972
 904	4.5150e-01	3.8983	-12.488142	0.000363	3.632417	1.230696	-0.029127
 905	4.5200e-01	3.8518	-12.488142	-0.000000	-0.000000	-0.000000	0.000000
 906	4.5250e-01	3.8165	-12.378916	-0.000272	-2.724313	-0.923022	0.021845
 907	4.5300e-01	3.7764	-12.743002	0.000908	9.081043	3.076741	-0.072817
 908	4.5350e-01	3.7411	-12.706593	-0.000091	-0.908104	-0.307674	0.007282
 909	4.5400e-01	3.7026	-12.925045	0.000545	5.448626	1.846044	-0.043690
 910	4.5450e-01	3.6609	-12.997862	0.000182	1.816209	0.615348	-0.014563
 911	4.5500e-01	3.6143	-13.216313	0.000545	5.448626	1.846044	-0.043690
 912	4.5550e-01	3.5726	-13.325539	0.000272	2.724313	0.923022	-0.021845
 913	4.5600e-01	3.5550	-13.179905	-0.000363	-3.632417	-1.230696	0.029127
 914	4.5650e-01	3.5052	-13.580399	0.000999	9.989147	3.384415	-0.080099
 915	4.5700e-01	3.4635	-13.944485	0.000908	9.081043	3.076741	-0.072817
 916	4.5750e-01	3.4138	-14.235754	0.000726	7.264834	2.461392	-0.058254
 917	4.5800e-01	3.3673	-13.908076	-0.000817	-8.172939	-2.769067	0.065535
 918	4.5850e-01	3.3400	-14.126528	0.000545	5.448626	1.846044	-0.043690
 919	4.5900e-01	3.3111	-14.126528	-0.000000	-0.000000	-0.000000	0.000000
 920	4.5950e-01	3.2598	-14.381388	0.000636	6.356730	2.153718	-0.050972
 921	4.6000e-01	3.2245	-14.854699	0.001181	11.805356	3.999763	-0.094662
 922	4.6050e-01	3.1844	-14.599839	-0.000636	-6.356730	-2.153718	0.050972
 923	4.6100e-01	3.1427	-14.490614	-0.000272	-2.724313	-0.923022	0.021845
 924	4.6150e-01	3.0849	-14.927517	0.001090	10.897251	3.692089	-0.087381
 925	4.6200e-01	3.0721	-14.818291	-0.000272	-2.724313	-0.923022	0.021845
 926	4.6250e-01	3.0272	-15.291602	0.001181	11.805356	3.999763	-0.094662
 927	4.6300e-01	2.9839	-15.255194	-0.000091	-0.908104	-0.307674	0.007282
 928	4.6350e-01	2.9390	-15.255194	-0.000000	-0.000000	-0.000000	0.000000
 929	4.6400e-01	2.9021	-15.692097	0.001090	10.897251	3.692089	-0.087381
 930	4.6450e-01	2.8603	-15.728505	0.000091	0.908104	0.307674	-0.007282
 931	4.6500e-01	2.8138	-15.983365	0.000636	6.356730	2.153718	-0.050972
 932	4.6550e-01	2.7753	-15.764914	-0.000545	-5.448626	-1.846044	0.043690
 933	4.6600e-01	2.7513	-16.274634	0.001271	12.713460	4.307437	-0.101944
 934	4.6650e-01	2.7079	-16.165408	-0.000272	-2.724313	-0.923022	0.021845
 935	4.6700e-01	2.6727	-16.311042	0.000363	3.632417	1.230696	-0.029127
 936	4.6750e-01	2.6293	-16.347451	0.000091	0.908104	0.307674	-0.007282
 937	4.6800e-01	2.5844	-16.857171	0.001271	12.713460	4.307437	-0.101944
 938	4.6850e-01	2.5475	-16.565903	-0.000726	-7.264834	-2.461392	0.058254
 939	4.6900e-01	2.5042	-16.638720	0.000182	1.816209	0.615348	-0.014563
 940	4.6950e-01	2.4625	-16.857171	0.000545	5.448626	1.846044	-0.043690
 941	4.7000e-01	2.4192	-17.694568	0.002089	20.886398	7.076503	-0.167479
 942	4.7050e-01	2.3839	-17.221257	-0.001181	-11.805356	-3.999763	0.094662
 943	4.7100e-01	2.3518	-17.330483	0.000272	2.724313	0.923022	-0.021845
 944	4.7150e-01	2.3181	-17.548934	0.000545	5.448626	1.846044	-0.043690
 945	4.7200e-01	2.2700	-17.840203	0.000726	7.264834	2.461392	-0.058254
 946	4.7250e-01	2.2235	-17.949428	0.000272	2.724313	0.923022	-0.021845
 947	4.7300e-01	2.1866	-18.131471	0.000454	4.540521	1.538370	-0.036409
 948	4.7350e-01	2.1320	-18.204288	0.000182	1.816209	0.615348	-0.014563
 949	4.7400e-01	2.0935	-18.204288	-0.000000	-0.000000	-0.000000	0.000000
 950	4.7450e-01	2.0919	-18.422740	0.000545	5.448626	1.846044	-0.043690
 951	4.7500e-01	2.0213	-18.604783	0.000454	4.540521	1.538370	-0.036409
 952	4.7550e-01	1.9973	-18.714009	0.000272	2.724313	0.923022	-0.021845
 953	4.7600e-01	1.9507	-18.641191	-0.000182	-1.816209	-0.615348	0.014563
 954	4.7650e-01	1.9155	-18.859643	0.000545	5.448626	1.846044	-0.043690
 955	4.7700e-01	1.8641	-18.896051	0.000091	0.908104	0.307674	-0.007282
 956	4.7750e-01	1.8224	-19.223729	0.000817	8.172939	2.769067	-0.065535
 957	4.7800e-01	1.7855	-19.405772	0.000454	4.540521	1.538370	-0.036409
 958	4.7850e-01	1.7518	-19.442180	0.000091	0.908104	0.307674	-0.007282
 959	4.7900e-01	1.7213	-19.514997	0.000182	1.816209	0.615348	-0.014563
 960	4.7950e-01	1.6668	-19.806266	0.000726	7.264834	2.461392	-0.058254
 961	4.8000e-01	1.6443	-20.133943	0.000817	8.172939	2.769067	-0.065535
 962	4.8050e-01	1.5866	-20.170352	0.000091	0.908104	0.307674	-0.007282
 963	4.8100e-01	1.5449	-20.279577	0.000272	2.724313	0.923022	-0.021845
 964	4.8150e-01	1.5192	-20.206760	-0.000182	-1.816209	-0.615348	0.014563
 965	4.8200e-01	1.4518	-20.680072	0.001181	11.805356	3.999763	-0.094662
 966	4.8250e-01	1.4326	-20.461620	-0.000545	-5.448626	-1.846044	0.043690
 967	4.8300e-01	1.3812	-20.425212	-0.000091	-0.908104	-0.307674	0.007282
 968	4.8350e-01	1.3347	-21.116975	0.001725	17.253981	5.845807	-0.138353
 969	4.8400e-01	1.3187	-20.898523	-0.000545	-5.448626	-1.846044	0.043690
 970	4.8450e-01	1.2529	-21.080566	0.000454	4.540521	1.538370	-0.036409
 971	4.8500e-01	1.2128	-21.080566	-0.000000	-0.000000	-0.000000	0.000000
 972	4.8550e-01	1.1711	-21.699512	0.001544	15.437773	5.230459	-0.123789
 973	4.8600e-01	1.1422	-21.590286	-0.000272	-2.724313	-0.923022	0.021845
 974	4.8650e-01	1.0909	-21.262609	-0.000817	-8.172939	-2.769067	0.065535
 975	4.8700e-01	1.0604	-21.954372	0.001725	17.253981	5.845807	-0.138353
 976	4.8750e-01	1.0347	-21.954372	-0.000000	-0.000000	-0.000000	0.000000
 977	4.8800e-01	0.9946	-22.100006	0.000363	3.632417	1.230696	-0.029127
 978	4.8850e-01	0.9385	-22.282049	0.000454	4.540521	1.538370	-0.036409
 979	4.8900e-01	0.9064	-22.573318	0.000726	7.264834	2.461392	-0.058254
 980	4.8950e-01	0.8422	-22.718952	0.000363	3.632417	1.230696	-0.029127
 981	4.9000e-01	0.8117	-22.318458	-0.000999	-9.989147	-3.384415	0.080099
 982	4.9050e-01	0.7716	-22.973812	0.001635	16.345877	5.538133	-0.131071
 983	4.9100e-01	0.7187	-22.864586	-0.000272	-2.724313	-0.923022	0.021845
 984	4.9150e-01	0.7187	-23.265081	0.000999	9.989147	3.384415	-0.080099
 985	4.9200e-01	0.6497	-23.155855	-0.000272	-2.724313	-0.923022	0.021845
 986	4.9250e-01	0.6224	-23.337898	0.000454	4.540521	1.538370	-0.036409
 987	4.9300e-01	0.5888	-23.155855	-0.000454	-4.540521	-1.538370	0.036409
 988	4.9350e-01	0.5583	-24.029661	0.002179	21.794503	7.384177	-0.174761
 989	4.9400e-01	0.4925	-23.993252	-0.000091	-0.908104	-0.307674	0.007282
 990	4.9450e-01	0.4508	-24.175295	0.000454	4.540521	1.538370	-0.036409
 991	4.9500e-01	0.4043	-24.066069	-0.000272	-2.724313	-0.923022	0.021845
 992	4.9550e-01	0.3513	-24.721424	0.001635	16.345877	5.538133	-0.131071
 993	4.9600e-01	0.3385	-24.430155	-0.000726	-7.264834	-2.461392	0.058254
 994	4.9650e-01	0.3048	-24.757832	0.000817	8.172939	2.769067	-0.065535
 995	4.9700e-01	0.2487	-24.903467	0.000363	3.632417	1.230696	-0.029127
 996	4.9750e-01	0.2134	-24.575789	-0.000817	-8.172939	-2.769067	0.065535
 997	4.9800e-01	0.1749	-25.194735	0.001544	15.437773	5.230459	-0.123789
 998	4.9850e-01	0.1364	-25.303961	0.000272	2.724313	0.923022	-0.021845
 999	4.9900e-01	0.1011	-25.558821	0.000636	6.356730	2.153718	-0.050972
1000	4.9950e-01	0.0626	-25.704455	0.000363	3.632417	1.230696	-0.029127
1001	5.0000e-01	0.0642	-25.668047	0.000363	3.632417	1.230696	0.007282

PMax (uC/cm2):	5.60e+01
Pr (uC/cm2):	2.40e+00
-Pr (uC/cm2):	0.00e+00
PLoss (uC/cm2):	0.00e+00
C (Max-Eff) (nF):	2.80e-01
K (Eff):	9.47e+02
Vert. (+/-Pr) Shift (uC/cm2):	1.20e+00
Offset (uC/cm2):	2.81e+01

A (Loop Area - uC/cm2·Volts):	3.11e-01



Hysteresis Version: 5.48.1 - Radiant Technologies, Inc., 1999 - 9/12/24

»»»»»»»»»»»»»»»»»»»»»»»»»»»»»»»»»»»» Hysteresis ««««««««««««««««««««««««««««««««««««
»»»  Executed Version:	5.48.1
»»»  Vision Version:	5.48.4 (R)
»»»  Vision Compiled:	9/18/24
»»»  Driver Version:	5.47.0
»»»  Windows Version:	Windows 8 or 8.1
»»»  Processor Information:	x86 (AMD or Intel) - 32 Processors
»»»  Tester Name:	PMF21124-494 (100V)
»»»  Tester S/N:	PMF21124-494
»»»  Internal Amp Type:	100V RevK 270k
»»»  Internal Amp S/N:	iAB2-596/K     
»»»  Execution Count:	1
»»»»»»»»»»»»»»»»»»»»»»»»»»»»»»»»»»»»»»»»»»««««««««««««««««««««««««««««««««««««««««««

Stored:	10/10/2025 - 11:37:26
Configured:	10/10/25 10:37:25 AM
Executed:	10/10/25 11:36:53 AM

»»»»»»»»»»»»»»»»»»»»»»»»»»»»»»»»»»» Sample Info ««««««««««««««««««««««««««««««««««««
Sample Name:	Int. Ref. Ferroelectric
Lot Name:	N/A
Wafer Name:	N/A
Die Row/Column:	0/0
Capacitor Number:	0
Sample Area (cm2):	1.00e-04
Sample Thickness (microns):	3.00e-01

Amplifier:	Internal

»»»»»»»»»»»»»»»»»»»»»»»»»»»»»»»»»»» Tester Info «««««««««««««««««««««««««««««««««««
Tester Name:	PMF21124-494 (100V)
Tester Serial Number:	PMF21124-494
Return Signal Amp. Level:	0.02 [Index: 2]

»»»»»»»»»»»»»»»»»»»»»»»»»»»»»»»» Hysteresis Info ««««««««««««««««««««««««««««««««««
Task Name:	Hyst-170
Volts:	20.00
Field:	666.67 (kV/cm)
DCBias:	0.00
DCField:	0.00 (kV/cm)
Hysteresis Period (ms):	5.00e-01
Preset:	Enabled
Preset Delay (ms):	1.00e+03
Profile:	Standard Monopolar

»»»»»»»»»»»»»»»»»»»»»»»»»»»»»»»»»»»»»» Data «««««««««««««««««««««««««««««««««««««««
Points:	1001

Valid Data

Point	Time (ms)	Drive Voltage	Measured Polarization (uC/cm2)	Capacitance (uF)	Normalized Capacitance (uF/cm2)	Dielectric Constant	Instantaneous Current (mA)
   1	0.0000e+00	0.0770	-28.107421	-0.000999	-9.993952	-3.386043	0.080099
   2	5.0000e-04	0.0561	-27.706927	-0.000999	-9.993952	-3.386043	0.080099
   3	1.0000e-03	0.1075	-27.852561	-0.000363	-3.634164	-1.231288	-0.029127
   4	1.5000e-03	0.1749	-27.415658	0.001090	10.902493	3.693865	0.087381
   5	2.0000e-03	0.2102	-27.379250	0.000091	0.908541	0.307822	0.007282
   6	2.5000e-03	0.2182	-27.160798	0.000545	5.451247	1.846932	0.043690
   7	3.0000e-03	0.2807	-26.578261	0.001454	14.536658	4.925153	0.116507
   8	3.5000e-03	0.3401	-27.197207	-0.001545	-15.445199	-5.232975	-0.123789
   9	4.0000e-03	0.3802	-26.323401	0.002180	21.804986	7.387729	0.174761
  10	4.5000e-03	0.3818	-26.578261	-0.000636	-6.359788	-2.154754	-0.050972
  11	5.0000e-03	0.4251	-26.469035	0.000273	2.725623	0.923466	0.021845
  12	5.5000e-03	0.4668	-26.432627	0.000091	0.908541	0.307822	0.007282
  13	6.0000e-03	0.4877	-26.286993	0.000363	3.634164	1.231288	0.029127
  14	6.5000e-03	0.5438	-25.922907	0.000909	9.085411	3.078221	0.072817
  15	7.0000e-03	0.5920	-25.886498	0.000091	0.908541	0.307822	0.007282
  16	7.5000e-03	0.6112	-25.486004	0.000999	9.993952	3.386043	0.080099
  17	8.0000e-03	0.6593	-25.376778	0.000273	2.725623	0.923466	0.021845
  18	8.5000e-03	0.7203	-25.121918	0.000636	6.359788	2.154754	0.050972
  19	9.0000e-03	0.7748	-25.376778	-0.000636	-6.359788	-2.154754	-0.050972
  20	9.5000e-03	0.8214	-25.158327	0.000545	5.451247	1.846932	0.043690
  21	1.0000e-02	0.8214	-24.502972	-0.001635	-16.353740	-5.540797	0.131071
  22	1.0500e-02	0.8887	-24.830649	-0.000818	-8.176870	-2.770399	-0.065535
  23	1.1000e-02	0.9176	-24.867058	-0.000091	-0.908541	-0.307822	-0.007282
  24	1.1500e-02	0.9401	-24.466564	0.000999	9.993952	3.386043	0.080099
  25	1.2000e-02	0.9834	-24.138887	0.000818	8.176870	2.770399	0.065535
  26	1.2500e-02	1.0444	-24.612198	-0.001181	-11.811034	-4.001687	-0.094662
  27	1.3000e-02	1.0716	-23.920435	0.001726	17.262281	5.848619	0.138353
  28	1.3500e-02	1.1149	-24.284521	-0.000909	-9.085411	-3.078221	-0.072817
  29	1.4000e-02	1.1502	-23.811209	0.001181	11.811034	4.001687	0.094662
  30	1.4500e-02	1.1903	-23.774801	0.000091	0.908541	0.307822	0.007282
  31	1.5000e-02	1.2337	-23.374306	0.000999	9.993952	3.386043	0.080099
  32	1.5500e-02	1.2754	-23.592758	-0.000545	-5.451247	-1.846932	-0.043690
  33	1.6000e-02	1.3042	-23.337898	0.000636	6.359788	2.154754	0.050972
  34	1.6500e-02	1.3347	-23.556349	-0.000545	-5.451247	-1.846932	-0.043690
  35	1.7000e-02	1.4037	-22.973812	0.001454	14.536658	4.925153	0.116507
  36	1.7500e-02	1.4294	-23.010221	-0.000091	-0.908541	-0.307822	-0.007282
  37	1.8000e-02	1.4807	-22.500501	0.001272	12.719575	4.309509	0.101944
  38	1.8500e-02	1.5128	-22.973812	-0.001181	-11.811034	-4.001687	-0.094662
  39	1.9000e-02	1.5513	-22.609726	0.000909	9.085411	3.078221	0.072817
  40	1.9500e-02	1.5994	-22.063598	0.001363	13.628117	4.617331	0.109226
  41	2.0000e-02	1.6443	-21.917963	0.000363	3.634164	1.231288	0.029127
  42	2.0500e-02	1.6716	-21.845146	0.000182	1.817082	0.615644	0.014563
  43	2.1000e-02	1.7085	-21.735920	0.000273	2.725623	0.923466	0.021845
  44	2.1500e-02	1.7582	-21.954372	-0.000545	-5.451247	-1.846932	-0.043690
  45	2.2000e-02	1.7775	-21.007749	0.002362	23.622069	8.003374	0.189325
  46	2.2500e-02	1.8176	-21.808738	-0.001999	-19.987904	-6.772085	-0.160198
  47	2.3000e-02	1.8786	-21.881555	-0.000182	-1.817082	-0.615644	-0.014563
  48	2.3500e-02	1.9106	-21.299018	0.001454	14.536658	4.925153	0.116507
  49	2.4000e-02	1.9684	-21.007749	0.000727	7.268329	2.462576	0.058254
  50	2.4500e-02	1.9957	-20.934932	0.000182	1.817082	0.615644	0.014563
  51	2.5000e-02	2.0406	-20.498029	0.001090	10.902493	3.693865	0.087381
  52	2.5500e-02	2.0663	-20.680072	-0.000454	-4.542706	-1.539110	-0.036409
  53	2.6000e-02	2.1015	-20.461620	0.000545	5.451247	1.846932	0.043690
  54	2.6500e-02	2.1417	-20.680072	-0.000545	-5.451247	-1.846932	-0.043690
  55	2.7000e-02	2.1962	-20.388803	0.000727	7.268329	2.462576	0.058254
  56	2.7500e-02	2.2475	-20.315986	0.000182	1.817082	0.615644	0.014563
  57	2.8000e-02	2.2973	-20.243169	0.000182	1.817082	0.615644	0.014563
  58	2.8500e-02	2.3053	-19.806266	0.001090	10.902493	3.693865	0.087381
  59	2.9000e-02	2.3630	-19.332954	0.001181	11.811034	4.001687	0.094662
  60	2.9500e-02	2.3759	-19.842674	-0.001272	-12.719575	-4.309509	-0.101944
  61	3.0000e-02	2.4320	-19.369363	0.001181	11.811034	4.001687	0.094662
  62	3.0500e-02	2.4513	-19.514997	-0.000363	-3.634164	-1.231288	-0.029127
  63	3.1000e-02	2.4994	-19.041686	0.001181	11.811034	4.001687	0.094662
  64	3.1500e-02	2.5700	-19.041686	0.000000	0.000000	0.000000	0.000000
  65	3.2000e-02	2.6005	-19.114503	-0.000182	-1.817082	-0.615644	-0.014563
  66	3.2500e-02	2.6390	-18.604783	0.001272	12.719575	4.309509	0.101944
  67	3.3000e-02	2.6919	-18.823234	-0.000545	-5.451247	-1.846932	-0.043690
  68	3.3500e-02	2.7384	-18.641191	0.000454	4.542706	1.539110	0.036409
  69	3.4000e-02	2.7833	-18.568374	0.000182	1.817082	0.615644	0.014563
  70	3.4500e-02	2.7994	-18.531966	0.000091	0.908541	0.307822	0.007282
  71	3.5000e-02	2.8202	-18.240697	0.000727	7.268329	2.462576	0.058254
  72	3.5500e-02	2.8571	-18.095063	0.000363	3.634164	1.231288	0.029127
  73	3.6000e-02	2.9181	-17.985837	0.000273	2.725623	0.923466	0.021845
  74	3.6500e-02	2.9357	-17.730977	0.000636	6.359788	2.154754	0.050972
  75	3.7000e-02	2.9919	-17.221257	0.001272	12.719575	4.309509	0.101944
  76	3.7500e-02	3.0496	-17.658160	-0.001090	-10.902493	-3.693865	-0.087381
  77	3.8000e-02	3.0769	-17.294074	0.000909	9.085411	3.078221	0.072817
  78	3.8500e-02	3.1250	-17.330483	-0.000091	-0.908541	-0.307822	-0.007282
  79	3.9000e-02	3.1347	-17.403300	-0.000182	-1.817082	-0.615644	-0.014563
  80	3.9500e-02	3.2037	-16.602311	0.001999	19.987904	6.772085	0.160198
  81	4.0000e-02	3.2309	-16.893580	-0.000727	-7.268329	-2.462576	-0.058254
  82	4.0500e-02	3.2710	-16.675128	0.000545	5.451247	1.846932	0.043690
  83	4.1000e-02	3.2967	-16.602311	0.000182	1.817082	0.615644	0.014563
  84	4.1500e-02	3.3496	-16.201817	0.000999	9.993952	3.386043	0.080099
  85	4.2000e-02	3.3769	-16.420268	-0.000545	-5.451247	-1.846932	-0.043690
  86	4.2500e-02	3.4395	-16.565903	-0.000363	-3.634164	-1.231288	-0.029127
  87	4.3000e-02	3.4667	-15.946957	0.001545	15.445199	5.232975	0.123789
  88	4.3500e-02	3.5069	-16.019774	-0.000182	-1.817082	-0.615644	-0.014563
  89	4.4000e-02	3.5470	-15.764914	0.000636	6.359788	2.154754	0.050972
  90	4.4500e-02	3.5983	-16.019774	-0.000636	-6.359788	-2.154754	-0.050972
  91	4.5000e-02	3.6512	-15.655688	0.000909	9.085411	3.078221	0.072817
  92	4.5500e-02	3.6785	-15.619280	0.000091	0.908541	0.307822	0.007282
  93	4.6000e-02	3.7058	-15.582871	0.000091	0.908541	0.307822	0.007282
  94	4.6500e-02	3.7411	-14.854699	0.001817	18.170822	6.156441	0.145634
  95	4.7000e-02	3.7748	-15.255194	-0.000999	-9.993952	-3.386043	-0.080099
  96	4.7500e-02	3.8373	-14.891108	0.000909	9.085411	3.078221	0.072817
  97	4.8000e-02	3.8855	-14.672657	0.000545	5.451247	1.846932	0.043690
  98	4.8500e-02	3.9143	-14.417796	0.000636	6.359788	2.154754	0.050972
  99	4.9000e-02	3.9320	-14.454205	-0.000091	-0.908541	-0.307822	-0.007282
 100	4.9500e-02	3.9721	-15.073151	-0.001545	-15.445199	-5.232975	-0.123789
 101	5.0000e-02	4.0234	-14.709065	0.000909	9.085411	3.078221	0.072817
 102	5.0500e-02	4.0667	-13.871668	0.002090	20.896445	7.079907	0.167479
 103	5.1000e-02	4.1213	-14.454205	-0.001454	-14.536658	-4.925153	-0.116507
 104	5.1500e-02	4.1822	-14.053711	0.000999	9.993952	3.386043	0.080099
 105	5.2000e-02	4.2031	-14.308571	-0.000636	-6.359788	-2.154754	-0.050972
 106	5.2500e-02	4.2352	-13.798851	0.001272	12.719575	4.309509	0.101944
 107	5.3000e-02	4.2913	-13.689625	0.000273	2.725623	0.923466	0.021845
 108	5.3500e-02	4.3427	-13.726034	-0.000091	-0.908541	-0.307822	-0.007282
 109	5.4000e-02	4.3651	-13.580399	0.000363	3.634164	1.231288	0.029127
 110	5.4500e-02	4.4100	-12.961453	0.001545	15.445199	5.232975	0.123789
 111	5.5000e-02	4.4646	-13.398356	-0.001090	-10.902493	-3.693865	-0.087381
 112	5.5500e-02	4.4935	-13.325539	0.000182	1.817082	0.615644	0.014563
 113	5.6000e-02	4.5336	-12.670185	0.001635	16.353740	5.540797	0.131071
 114	5.6500e-02	4.5673	-12.306099	0.000909	9.085411	3.078221	0.072817
 115	5.7000e-02	4.5993	-12.670185	-0.000909	-9.085411	-3.078221	-0.072817
 116	5.7500e-02	4.6170	-12.087648	0.001454	14.536658	4.925153	0.116507
 117	5.8000e-02	4.6747	-12.087648	0.000000	0.000000	0.000000	0.000000
 118	5.8500e-02	4.7293	-12.451733	-0.000909	-9.085411	-3.078221	-0.072817
 119	5.9000e-02	4.7678	-12.051239	0.000999	9.993952	3.386043	0.080099
 120	5.9500e-02	4.8031	-11.832788	0.000545	5.451247	1.846932	0.043690
 121	6.0000e-02	4.8303	-11.905605	-0.000182	-1.817082	-0.615644	-0.014563
 122	6.0500e-02	4.9057	-11.869196	0.000091	0.908541	0.307822	0.007282
 123	6.1000e-02	4.9218	-11.577927	0.000727	7.268329	2.462576	0.058254
 124	6.1500e-02	4.9362	-11.723562	-0.000363	-3.634164	-1.231288	-0.029127
 125	6.2000e-02	4.9715	-11.395885	0.000818	8.176870	2.770399	0.065535
 126	6.2500e-02	5.0212	-11.068207	0.000818	8.176870	2.770399	0.065535
 127	6.3000e-02	5.0790	-11.359476	-0.000727	-7.268329	-2.462576	-0.058254
 128	6.3500e-02	5.1079	-11.031799	0.000818	8.176870	2.770399	0.065535
 129	6.4000e-02	5.1560	-10.594896	0.001090	10.902493	3.693865	0.087381
 130	6.4500e-02	5.2154	-10.886165	-0.000727	-7.268329	-2.462576	-0.058254
 131	6.5000e-02	5.2426	-10.704122	0.000454	4.542706	1.539110	0.036409
 132	6.5500e-02	5.2843	-10.594896	0.000273	2.725623	0.923466	0.021845
 133	6.6000e-02	5.3180	-10.558487	0.000091	0.908541	0.307822	0.007282
 134	6.6500e-02	5.3694	-10.194402	0.000909	9.085411	3.078221	0.072817
 135	6.7000e-02	5.3838	-10.085176	0.000273	2.725623	0.923466	0.021845
 136	6.7500e-02	5.4255	-10.303627	-0.000545	-5.451247	-1.846932	-0.043690
 137	6.8000e-02	5.4704	-10.048767	0.000636	6.359788	2.154754	0.050972
 138	6.8500e-02	5.5330	-10.121584	-0.000182	-1.817082	-0.615644	-0.014563
 139	6.9000e-02	5.5651	-9.648273	0.001181	11.811034	4.001687	0.094662
 140	6.9500e-02	5.5972	-9.575456	0.000182	1.817082	0.615644	0.014563
 141	7.0000e-02	5.6212	-9.393413	0.000454	4.542706	1.539110	0.036409
 142	7.0500e-02	5.6726	-9.211370	0.000454	4.542706	1.539110	0.036409
 143	7.1000e-02	5.6966	-9.502639	-0.000727	-7.268329	-2.462576	-0.058254
 144	7.1500e-02	5.7351	-9.357004	0.000363	3.634164	1.231288	0.029127
 145	7.2000e-02	5.7801	-8.665241	0.001726	17.262281	5.848619	0.138353
 146	7.2500e-02	5.8266	-8.774467	-0.000273	-2.725623	-0.923466	-0.021845
 147	7.3000e-02	5.8972	-8.774467	0.000000	0.000000	0.000000	0.000000
 148	7.3500e-02	5.9116	-8.410381	0.000909	9.085411	3.078221	0.072817
 149	7.4000e-02	5.9421	-8.410381	0.000000	0.000000	0.000000	0.000000
 150	7.4500e-02	6.0159	-8.228338	0.000454	4.542706	1.539110	0.036409
 151	7.5000e-02	6.0480	-8.228338	0.000000	0.000000	0.000000	0.000000
 152	7.5500e-02	6.0913	-8.264747	-0.000091	-0.908541	-0.307822	-0.007282
 153	7.6000e-02	6.0993	-7.973478	0.000727	7.268329	2.462576	0.058254
 154	7.6500e-02	6.1266	-7.755027	0.000545	5.451247	1.846932	0.043690
 155	7.7000e-02	6.1972	-7.900661	-0.000363	-3.634164	-1.231288	-0.029127
 156	7.7500e-02	6.2373	-7.318124	0.001454	14.536658	4.925153	0.116507
 157	7.8000e-02	6.2870	-7.427350	-0.000273	-2.725623	-0.923466	-0.021845
 158	7.8500e-02	6.3143	-7.390941	0.000091	0.908541	0.307822	0.007282
 159	7.9000e-02	6.3367	-7.136081	0.000636	6.359788	2.154754	0.050972
 160	7.9500e-02	6.4041	-6.917630	0.000545	5.451247	1.846932	0.043690
 161	8.0000e-02	6.4250	-6.844812	0.000182	1.817082	0.615644	0.014563
 162	8.0500e-02	6.4811	-6.990447	-0.000363	-3.634164	-1.231288	-0.029127
 163	8.1000e-02	6.4891	-6.808404	0.000454	4.542706	1.539110	0.036409
 164	8.1500e-02	6.5132	-6.553544	0.000636	6.359788	2.154754	0.050972
 165	8.2000e-02	6.5934	-6.444318	0.000273	2.725623	0.923466	0.021845
 166	8.2500e-02	6.6335	-6.116641	0.000818	8.176870	2.770399	0.065535
 167	8.3000e-02	6.6768	-6.298684	-0.000454	-4.542706	-1.539110	-0.036409
 168	8.3500e-02	6.6864	-5.788964	0.001272	12.719575	4.309509	0.101944
 169	8.4000e-02	6.7458	-5.861781	-0.000182	-1.817082	-0.615644	-0.014563
 170	8.4500e-02	6.7859	-5.898189	-0.000091	-0.908541	-0.307822	-0.007282
 171	8.5000e-02	6.8356	-5.825372	0.000182	1.817082	0.615644	0.014563
 172	8.5500e-02	6.8870	-5.752555	0.000182	1.817082	0.615644	0.014563
 173	8.6000e-02	6.9303	-5.679738	0.000182	1.817082	0.615644	0.014563
 174	8.6500e-02	6.9527	-5.097201	0.001454	14.536658	4.925153	0.116507
 175	8.7000e-02	6.9961	-5.679738	-0.001454	-14.536658	-4.925153	-0.116507
 176	8.7500e-02	7.0089	-4.915158	0.001908	19.079363	6.464263	0.152916
 177	8.8000e-02	7.0618	-5.424878	-0.001272	-12.719575	-4.309509	-0.101944
 178	8.8500e-02	7.1084	-4.733115	0.001726	17.262281	5.848619	0.138353
 179	8.9000e-02	7.1212	-4.878749	-0.000363	-3.634164	-1.231288	-0.029127
 180	8.9500e-02	7.1741	-4.660298	0.000545	5.451247	1.846932	0.043690
 181	9.0000e-02	7.2014	-4.623889	0.000091	0.908541	0.307822	0.007282
 182	9.0500e-02	7.2656	-4.623889	0.000000	0.000000	0.000000	0.000000
 183	9.1000e-02	7.3105	-4.223395	0.000999	9.993952	3.386043	0.080099
 184	9.1500e-02	7.3763	-4.441846	-0.000545	-5.451247	-1.846932	-0.043690
 185	9.2000e-02	7.4083	-4.259804	0.000454	4.542706	1.539110	0.036409
 186	9.2500e-02	7.4308	-3.822901	0.001090	10.902493	3.693865	0.087381
 187	9.3000e-02	7.4966	-3.677266	0.000363	3.634164	1.231288	0.029127
 188	9.3500e-02	7.5319	-3.677266	0.000000	0.000000	0.000000	0.000000
 189	9.4000e-02	7.5495	-3.895718	-0.000545	-5.451247	-1.846932	-0.043690
 190	9.4500e-02	7.5944	-3.276772	0.001545	15.445199	5.232975	0.123789
 191	9.5000e-02	7.6426	-3.422406	-0.000363	-3.634164	-1.231288	-0.029127
 192	9.5500e-02	7.6859	-3.313181	0.000273	2.725623	0.923466	0.021845
 193	9.6000e-02	7.7180	-3.167546	0.000363	3.634164	1.231288	0.029127
 194	9.6500e-02	7.7565	-3.385998	-0.000545	-5.451247	-1.846932	-0.043690
 195	9.7000e-02	7.7789	-2.767052	0.001545	15.445199	5.232975	0.123789
 196	9.7500e-02	7.8222	-2.621418	0.000363	3.634164	1.231288	0.029127
 197	9.8000e-02	7.8688	-2.803460	-0.000454	-4.542706	-1.539110	-0.036409
 198	9.8500e-02	7.9249	-2.475783	0.000818	8.176870	2.770399	0.065535
 199	9.9000e-02	7.9682	-2.038880	0.001090	10.902493	3.693865	0.087381
 200	9.9500e-02	7.9875	-2.803460	-0.001908	-19.079363	-6.464263	-0.152916
 201	1.0000e-01	8.0340	-2.038880	0.001908	19.079363	6.464263	0.152916
 202	1.0050e-01	8.0934	-2.220923	-0.000454	-4.542706	-1.539110	-0.036409
 203	1.0100e-01	8.1094	-2.439375	-0.000545	-5.451247	-1.846932	-0.043690
 204	1.0150e-01	8.1351	-1.820429	0.001545	15.445199	5.232975	0.123789
 205	1.0200e-01	8.1896	-1.638386	0.000454	4.542706	1.539110	0.036409
 206	1.0250e-01	8.2313	-1.638386	0.000000	0.000000	0.000000	0.000000
 207	1.0300e-01	8.2859	-1.638386	0.000000	0.000000	0.000000	0.000000
 208	1.0350e-01	8.3356	-1.711203	-0.000182	-1.817082	-0.615644	-0.014563
 209	1.0400e-01	8.3516	-1.456343	0.000636	6.359788	2.154754	0.050972
 210	1.0450e-01	8.3917	-1.419935	0.000091	0.908541	0.307822	0.007282
 211	1.0500e-01	8.4335	-1.601977	-0.000454	-4.542706	-1.539110	-0.036409
 212	1.0550e-01	8.4880	-0.837397	0.001908	19.079363	6.464263	0.152916
 213	1.0600e-01	8.5217	-0.910214	-0.000182	-1.817082	-0.615644	-0.014563
 214	1.0650e-01	8.5425	-0.655354	0.000636	6.359788	2.154754	0.050972
 215	1.0700e-01	8.6051	-0.910214	-0.000636	-6.359788	-2.154754	-0.050972
 216	1.0750e-01	8.6356	-0.473312	0.001090	10.902493	3.693865	0.087381
 217	1.0800e-01	8.6661	-0.364086	0.000273	2.725623	0.923466	0.021845
 218	1.0850e-01	8.7062	-0.291269	0.000182	1.817082	0.615644	0.014563
 219	1.0900e-01	8.7511	-0.436903	-0.000363	-3.634164	-1.231288	-0.029127
 220	1.0950e-01	8.7800	0.072817	0.001272	12.719575	4.309509	0.101944
 221	1.1000e-01	8.8185	0.145634	0.000182	1.817082	0.615644	0.014563
 222	1.1050e-01	8.8698	-0.036409	-0.000454	-4.542706	-1.539110	-0.036409
 223	1.1100e-01	8.9131	0.218451	0.000636	6.359788	2.154754	0.050972
 224	1.1150e-01	8.9741	-0.109226	-0.000818	-8.176870	-2.770399	-0.065535
 225	1.1200e-01	8.9917	0.364086	0.001181	11.811034	4.001687	0.094662
 226	1.1250e-01	9.0318	0.655354	0.000727	7.268329	2.462576	0.058254
 227	1.1300e-01	9.0800	0.509720	-0.000363	-3.634164	-1.231288	-0.029127
 228	1.1350e-01	9.1153	0.509720	0.000000	0.000000	0.000000	0.000000
 229	1.1400e-01	9.1554	1.055849	0.001363	13.628117	4.617331	0.109226
 230	1.1450e-01	9.1987	1.055849	0.000000	0.000000	0.000000	0.000000
 231	1.1500e-01	9.2452	1.055849	0.000000	0.000000	0.000000	0.000000
 232	1.1550e-01	9.2773	1.383526	0.000818	8.176870	2.770399	0.065535
 233	1.1600e-01	9.3110	1.165074	-0.000545	-5.451247	-1.846932	-0.043690
 234	1.1650e-01	9.3591	1.419935	0.000636	6.359788	2.154754	0.050972
 235	1.1700e-01	9.3944	1.565569	0.000363	3.634164	1.231288	0.029127
 236	1.1750e-01	9.4521	1.856837	0.000727	7.268329	2.462576	0.058254
 237	1.1800e-01	9.4650	1.966063	0.000273	2.725623	0.923466	0.021845
 238	1.1850e-01	9.5099	1.929655	-0.000091	-0.908541	-0.307822	-0.007282
 239	1.1900e-01	9.5644	1.784020	-0.000363	-3.634164	-1.231288	-0.029127
 240	1.1950e-01	9.6270	1.966063	0.000454	4.542706	1.539110	0.036409
 241	1.2000e-01	9.6495	2.148106	0.000454	4.542706	1.539110	0.036409
 242	1.2050e-01	9.6831	1.893246	-0.000636	-6.359788	-2.154754	-0.050972
 243	1.2100e-01	9.7361	2.657826	0.001908	19.079363	6.464263	0.152916
 244	1.2150e-01	9.7569	2.439375	-0.000545	-5.451247	-1.846932	-0.043690
 245	1.2200e-01	9.7970	2.585009	0.000363	3.634164	1.231288	0.029127
 246	1.2250e-01	9.8404	2.621418	0.000091	0.908541	0.307822	0.007282
 247	1.2300e-01	9.8724	2.803460	0.000454	4.542706	1.539110	0.036409
 248	1.2350e-01	9.9254	3.131138	0.000818	8.176870	2.770399	0.065535
 249	1.2400e-01	9.9511	3.167546	0.000091	0.908541	0.307822	0.007282
 250	1.2450e-01	9.9687	3.058320	-0.000273	-2.725623	-0.923466	-0.021845
 251	1.2500e-01	10.0281	3.313181	0.000636	6.359788	2.154754	0.050972
 252	1.2550e-01	10.0874	2.767052	-0.001363	-13.628117	-4.617331	-0.109226
 253	1.2600e-01	10.1307	3.895718	0.002816	28.164774	9.542484	0.225733
 254	1.2650e-01	10.1452	3.640858	-0.000636	-6.359788	-2.154754	-0.050972
 255	1.2700e-01	10.1853	3.422406	-0.000545	-5.451247	-1.846932	-0.043690
 256	1.2750e-01	10.2206	3.859309	0.001090	10.902493	3.693865	0.087381
 257	1.2800e-01	10.2719	3.677266	-0.000454	-4.542706	-1.539110	-0.036409
 258	1.2850e-01	10.3072	4.186986	0.001272	12.719575	4.309509	0.101944
 259	1.2900e-01	10.3489	4.223395	0.000091	0.908541	0.307822	0.007282
 260	1.2950e-01	10.4034	4.259804	0.000091	0.908541	0.307822	0.007282
 261	1.3000e-01	10.4468	4.478255	0.000545	5.451247	1.846932	0.043690
 262	1.3050e-01	10.4548	4.587481	0.000273	2.725623	0.923466	0.021845
 263	1.3100e-01	10.5077	4.733115	0.000363	3.634164	1.231288	0.029127
 264	1.3150e-01	10.5591	4.915158	0.000454	4.542706	1.539110	0.036409
 265	1.3200e-01	10.5911	5.133609	0.000545	5.451247	1.846932	0.043690
 266	1.3250e-01	10.6104	4.769524	-0.000909	-9.085411	-3.078221	-0.072817
 267	1.3300e-01	10.6649	4.987975	0.000545	5.451247	1.846932	0.043690
 268	1.3350e-01	10.6970	5.424878	0.001090	10.902493	3.693865	0.087381
 269	1.3400e-01	10.7596	5.315652	-0.000273	-2.725623	-0.923466	-0.021845
 270	1.3450e-01	10.7997	5.424878	0.000273	2.725623	0.923466	0.021845
 271	1.3500e-01	10.8719	5.388469	-0.000091	-0.908541	-0.307822	-0.007282
 272	1.3550e-01	10.8671	5.279244	0.000273	2.725623	0.923466	-0.021845
 273	1.3600e-01	10.9168	5.752555	0.001181	11.811034	4.001687	0.094662
 274	1.3650e-01	10.9521	6.007415	0.000636	6.359788	2.154754	0.050972
 275	1.3700e-01	10.9810	5.971007	-0.000091	-0.908541	-0.307822	-0.007282
 276	1.3750e-01	11.0467	5.934598	-0.000091	-0.908541	-0.307822	-0.007282
 277	1.3800e-01	11.0740	6.335092	0.000999	9.993952	3.386043	0.080099
 278	1.3850e-01	11.1125	5.971007	-0.000909	-9.085411	-3.078221	-0.072817
 279	1.3900e-01	11.1494	6.225867	0.000636	6.359788	2.154754	0.050972
 280	1.3950e-01	11.1927	6.589952	0.000909	9.085411	3.078221	0.072817
 281	1.4000e-01	11.2409	6.444318	-0.000363	-3.634164	-1.231288	-0.029127
 282	1.4050e-01	11.2601	6.298684	-0.000363	-3.634164	-1.231288	-0.029127
 283	1.4100e-01	11.3066	7.136081	0.002090	20.896445	7.079907	0.167479
 284	1.4150e-01	11.3564	6.699178	-0.001090	-10.902493	-3.693865	-0.087381
 285	1.4200e-01	11.3981	7.136081	0.001090	10.902493	3.693865	0.087381
 286	1.4250e-01	11.4221	6.990447	-0.000363	-3.634164	-1.231288	-0.029127
 287	1.4300e-01	11.4719	6.990447	0.000000	0.000000	0.000000	0.000000
 288	1.4350e-01	11.5120	7.427350	0.001090	10.902493	3.693865	0.087381
 289	1.4400e-01	11.5489	7.682210	0.000636	6.359788	2.154754	0.050972
 290	1.4450e-01	11.5617	7.827844	0.000363	3.634164	1.231288	0.029127
 291	1.4500e-01	11.6050	7.864253	0.000091	0.908541	0.307822	0.007282
 292	1.4550e-01	11.6692	7.937070	0.000182	1.817082	0.615644	0.014563
 293	1.4600e-01	11.7077	7.973478	0.000091	0.908541	0.307822	0.007282
 294	1.4650e-01	11.7670	7.937070	-0.000091	-0.908541	-0.307822	-0.007282
 295	1.4700e-01	11.7815	8.191930	0.000636	6.359788	2.154754	0.050972
 296	1.4750e-01	11.8521	8.264747	0.000182	1.817082	0.615644	0.014563
 297	1.4800e-01	11.8954	8.191930	-0.000182	-1.817082	-0.615644	-0.014563
 298	1.4850e-01	11.9387	8.483198	0.000727	7.268329	2.462576	0.058254
 299	1.4900e-01	11.9596	8.337564	-0.000363	-3.634164	-1.231288	-0.029127
 300	1.4950e-01	11.9740	8.519607	0.000454	4.542706	1.539110	0.036409
 301	1.5000e-01	12.0221	8.774467	0.000636	6.359788	2.154754	0.050972
 302	1.5050e-01	12.0574	8.920101	0.000363	3.634164	1.231288	0.029127
 303	1.5100e-01	12.0943	9.211370	0.000727	7.268329	2.462576	0.058254
 304	1.5150e-01	12.1569	8.956510	-0.000636	-6.359788	-2.154754	-0.050972
 305	1.5200e-01	12.1825	8.992919	0.000091	0.908541	0.307822	0.007282
 306	1.5250e-01	12.2162	8.920101	-0.000182	-1.817082	-0.615644	-0.014563
 307	1.5300e-01	12.2740	9.138553	0.000545	5.451247	1.846932	0.043690
 308	1.5350e-01	12.2932	9.648273	0.001272	12.719575	4.309509	0.101944
 309	1.5400e-01	12.3590	9.684681	0.000091	0.908541	0.307822	0.007282
 310	1.5450e-01	12.4071	9.575456	-0.000273	-2.725623	-0.923466	-0.021845
 311	1.5500e-01	12.4408	9.757499	0.000454	4.542706	1.539110	0.036409
 312	1.5550e-01	12.4681	9.830316	0.000182	1.817082	0.615644	0.014563
 313	1.5600e-01	12.4922	10.230810	0.000999	9.993952	3.386043	0.080099
 314	1.5650e-01	12.5387	10.704122	0.001181	11.811034	4.001687	0.094662
 315	1.5700e-01	12.5884	10.048767	-0.001635	-16.353740	-5.540797	-0.131071
 316	1.5750e-01	12.6398	10.267219	0.000545	5.451247	1.846932	0.043690
 317	1.5800e-01	12.6670	10.085176	-0.000454	-4.542706	-1.539110	-0.036409
 318	1.5850e-01	12.6911	10.740530	0.001635	16.353740	5.540797	0.131071
 319	1.5900e-01	12.7440	10.303627	-0.001090	-10.902493	-3.693865	-0.087381
 320	1.5950e-01	12.7857	10.886165	0.001454	14.536658	4.925153	0.116507
 321	1.6000e-01	12.8258	10.958982	0.000182	1.817082	0.615644	0.014563
 322	1.6050e-01	12.8724	10.558487	-0.000999	-9.993952	-3.386043	-0.080099
 323	1.6100e-01	12.9221	11.031799	0.001181	11.811034	4.001687	0.094662
 324	1.6150e-01	12.9397	10.704122	-0.000818	-8.176870	-2.770399	-0.065535
 325	1.6200e-01	12.9798	11.432293	0.001817	18.170822	6.156441	0.145634
 326	1.6250e-01	13.0360	11.286659	-0.000363	-3.634164	-1.231288	-0.029127
 327	1.6300e-01	13.0857	11.759970	0.001181	11.811034	4.001687	0.094662
 328	1.6350e-01	13.1242	11.650745	-0.000273	-2.725623	-0.923466	-0.021845
 329	1.6400e-01	13.1419	11.250250	-0.000999	-9.993952	-3.386043	-0.080099
 330	1.6450e-01	13.1900	12.196873	0.002362	23.622069	8.003374	0.189325
 331	1.6500e-01	13.2317	11.505110	-0.001726	-17.262281	-5.848619	-0.138353
 332	1.6550e-01	13.2654	12.087648	0.001454	14.536658	4.925153	0.116507
 333	1.6600e-01	13.2959	12.415325	0.000818	8.176870	2.770399	0.065535
 334	1.6650e-01	13.3440	12.124056	-0.000727	-7.268329	-2.462576	-0.058254
 335	1.6700e-01	13.4018	12.196873	0.000182	1.817082	0.615644	0.014563
 336	1.6750e-01	13.4435	12.306099	0.000273	2.725623	0.923466	0.021845
 337	1.6800e-01	13.4611	12.597368	0.000727	7.268329	2.462576	0.058254
 338	1.6850e-01	13.5060	12.560959	-0.000091	-0.908541	-0.307822	-0.007282
 339	1.6900e-01	13.5718	12.706593	0.000363	3.634164	1.231288	0.029127
 340	1.6950e-01	13.6071	12.779411	0.000182	1.817082	0.615644	0.014563
 341	1.7000e-01	13.6376	12.524550	-0.000636	-6.359788	-2.154754	-0.050972
 342	1.7050e-01	13.6905	13.252722	0.001817	18.170822	6.156441	0.145634
 343	1.7100e-01	13.7162	12.670185	-0.001454	-14.536658	-4.925153	-0.116507
 344	1.7150e-01	13.7643	13.070679	0.000999	9.993952	3.386043	0.080099
 345	1.7200e-01	13.7916	13.616808	0.001363	13.628117	4.617331	0.109226
 346	1.7250e-01	13.8381	13.216313	-0.000999	-9.993952	-3.386043	-0.080099
 347	1.7300e-01	13.8862	13.653216	0.001090	10.902493	3.693865	0.087381
 348	1.7350e-01	13.9135	13.507582	-0.000363	-3.634164	-1.231288	-0.029127
 349	1.7400e-01	13.9247	13.653216	0.000363	3.634164	1.231288	0.029127
 350	1.7450e-01	13.9937	13.908076	0.000636	6.359788	2.154754	0.050972
 351	1.7500e-01	14.0451	13.944485	0.000091	0.908541	0.307822	0.007282
 352	1.7550e-01	14.0627	13.871668	-0.000182	-1.817082	-0.615644	-0.014563
 353	1.7600e-01	14.0836	14.017302	0.000363	3.634164	1.231288	0.029127
 354	1.7650e-01	14.1285	14.636248	0.001545	15.445199	5.232975	0.123789
 355	1.7700e-01	14.1959	14.126528	-0.001272	-12.719575	-4.309509	-0.101944
 356	1.7750e-01	14.2311	14.454205	0.000818	8.176870	2.770399	0.065535
 357	1.7800e-01	14.2777	14.454205	0.000000	0.000000	0.000000	0.000000
 358	1.7850e-01	14.3065	14.599839	0.000363	3.634164	1.231288	0.029127
 359	1.7900e-01	14.3611	14.563431	-0.000091	-0.908541	-0.307822	-0.007282
 360	1.7950e-01	14.3948	14.490614	-0.000182	-1.817082	-0.615644	-0.014563
 361	1.8000e-01	14.4188	15.400828	0.002271	22.713528	7.695551	0.182043
 362	1.8050e-01	14.4638	14.927517	-0.001181	-11.811034	-4.001687	-0.094662
 363	1.8100e-01	14.5055	15.073151	0.000363	3.634164	1.231288	0.029127
 364	1.8150e-01	14.5327	14.818291	-0.000636	-6.359788	-2.154754	-0.050972
 365	1.8200e-01	14.5857	14.818291	0.000000	0.000000	0.000000	0.000000
 366	1.8250e-01	14.6210	15.692097	0.002180	21.804986	7.387729	0.174761
 367	1.8300e-01	14.6691	15.364419	-0.000818	-8.176870	-2.770399	-0.065535
 368	1.8350e-01	14.7253	15.582871	0.000545	5.451247	1.846932	0.043690
 369	1.8400e-01	14.7589	15.510054	-0.000182	-1.817082	-0.615644	-0.014563
 370	1.8450e-01	14.8071	15.692097	0.000454	4.542706	1.539110	0.036409
 371	1.8500e-01	14.8424	15.837731	0.000363	3.634164	1.231288	0.029127
 372	1.8550e-01	14.8777	16.274634	0.001090	10.902493	3.693865	0.087381
 373	1.8600e-01	14.9162	16.019774	-0.000636	-6.359788	-2.154754	-0.050972
 374	1.8650e-01	14.9531	16.019774	0.000000	0.000000	0.000000	0.000000
 375	1.8700e-01	15.0044	16.165408	0.000363	3.634164	1.231288	0.029127
 376	1.8750e-01	15.0172	16.602311	0.001090	10.902493	3.693865	0.087381
 377	1.8800e-01	15.0509	16.201817	-0.000999	-9.993952	-3.386043	-0.080099
 378	1.8850e-01	15.1183	16.711537	0.001272	12.719575	4.309509	0.101944
 379	1.8900e-01	15.1359	16.274634	-0.001090	-10.902493	-3.693865	-0.087381
 380	1.8950e-01	15.1616	16.602311	0.000818	8.176870	2.770399	0.065535
 381	1.9000e-01	15.2097	16.820763	0.000545	5.451247	1.846932	0.043690
 382	1.9050e-01	15.2707	16.966397	0.000363	3.634164	1.231288	0.029127
 383	1.9100e-01	15.3156	16.529494	-0.001090	-10.902493	-3.693865	-0.087381
 384	1.9150e-01	15.3637	17.221257	0.001726	17.262281	5.848619	0.138353
 385	1.9200e-01	15.3814	17.548934	0.000818	8.176870	2.770399	0.065535
 386	1.9250e-01	15.4167	17.184848	-0.000909	-9.085411	-3.078221	-0.072817
 387	1.9300e-01	15.4439	17.585343	0.000999	9.993952	3.386043	0.080099
 388	1.9350e-01	15.5033	17.621751	0.000091	0.908541	0.307822	0.007282
 389	1.9400e-01	15.5434	17.221257	-0.000999	-9.993952	-3.386043	-0.080099
 390	1.9450e-01	15.5996	17.184848	-0.000091	-0.908541	-0.307822	-0.007282
 391	1.9500e-01	15.6044	17.949428	0.001908	19.079363	6.464263	0.152916
 392	1.9550e-01	15.6637	18.313514	0.000909	9.085411	3.078221	0.072817
 393	1.9600e-01	15.7343	17.949428	-0.000909	-9.085411	-3.078221	-0.072817
 394	1.9650e-01	15.7648	18.277106	0.000818	8.176870	2.770399	0.065535
 395	1.9700e-01	15.8017	18.058654	-0.000545	-5.451247	-1.846932	-0.043690
 396	1.9750e-01	15.8322	18.167880	0.000273	2.725623	0.923466	0.021845
 397	1.9800e-01	15.8883	17.949428	-0.000545	-5.451247	-1.846932	-0.043690
 398	1.9850e-01	15.9204	18.422740	0.001181	11.811034	4.001687	0.094662
 399	1.9900e-01	15.9701	18.277106	-0.000363	-3.634164	-1.231288	-0.029127
 400	1.9950e-01	15.9894	18.823234	0.001363	13.628117	4.617331	0.109226
 401	2.0000e-01	16.0263	18.531966	-0.000727	-7.268329	-2.462576	-0.058254
 402	2.0050e-01	16.0536	19.078094	0.001363	13.628117	4.617331	0.109226
 403	2.0100e-01	16.0856	18.932460	-0.000363	-3.634164	-1.231288	-0.029127
 404	2.0150e-01	16.1338	19.150911	0.000545	5.451247	1.846932	0.043690
 405	2.0200e-01	16.1835	18.932460	-0.000545	-5.451247	-1.846932	-0.043690
 406	2.0250e-01	16.2380	19.332954	0.000999	9.993952	3.386043	0.080099
 407	2.0300e-01	16.2477	19.624223	0.000727	7.268329	2.462576	0.058254
 408	2.0350e-01	16.2894	19.587814	-0.000091	-0.908541	-0.307822	-0.007282
 409	2.0400e-01	16.3664	19.442180	-0.000363	-3.634164	-1.231288	-0.029127
 410	2.0450e-01	16.3969	19.660632	0.000545	5.451247	1.846932	0.043690
 411	2.0500e-01	16.4209	19.660632	0.000000	0.000000	0.000000	0.000000
 412	2.0550e-01	16.4771	19.733449	0.000182	1.817082	0.615644	0.014563
 413	2.0600e-01	16.5220	19.951900	0.000545	5.451247	1.846932	0.043690
 414	2.0650e-01	16.5541	20.061126	0.000273	2.725623	0.923466	0.021845
 415	2.0700e-01	16.6022	20.097534	0.000091	0.908541	0.307822	0.007282
 416	2.0750e-01	16.6279	20.097534	0.000000	0.000000	0.000000	0.000000
 417	2.0800e-01	16.6712	20.789297	0.001726	17.262281	5.848619	0.138353
 418	2.0850e-01	16.7081	20.352395	-0.001090	-10.902493	-3.693865	-0.087381
 419	2.0900e-01	16.7370	20.024717	-0.000818	-8.176870	-2.770399	-0.065535
 420	2.0950e-01	16.7899	20.643663	0.001545	15.445199	5.232975	0.123789
 421	2.1000e-01	16.8509	20.315986	-0.000818	-8.176870	-2.770399	-0.065535
 422	2.1050e-01	16.8813	20.643663	0.000818	8.176870	2.770399	0.065535
 423	2.1100e-01	16.9086	20.680072	0.000091	0.908541	0.307822	0.007282
 424	2.1150e-01	16.9407	21.007749	0.000818	8.176870	2.770399	0.065535
 425	2.1200e-01	17.0001	20.898523	-0.000273	-2.725623	-0.923466	-0.021845
 426	2.1250e-01	17.0209	21.044157	0.000363	3.634164	1.231288	0.029127
 427	2.1300e-01	17.0722	20.825706	-0.000545	-5.451247	-1.846932	-0.043690
 428	2.1350e-01	17.1075	21.408243	0.001454	14.536658	4.925153	0.116507
 429	2.1400e-01	17.1268	21.626695	0.000545	5.451247	1.846932	0.043690
 430	2.1450e-01	17.1685	21.444652	-0.000454	-4.542706	-1.539110	-0.036409
 431	2.1500e-01	17.2279	21.699512	0.000636	6.359788	2.154754	0.050972
 432	2.1550e-01	17.2792	21.481060	-0.000545	-5.451247	-1.846932	-0.043690
 433	2.1600e-01	17.3225	21.808738	0.000818	8.176870	2.770399	0.065535
 434	2.1650e-01	17.3514	21.845146	0.000091	0.908541	0.307822	0.007282
 435	2.1700e-01	17.3626	21.626695	-0.000545	-5.451247	-1.846932	-0.043690
 436	2.1750e-01	17.4300	21.808738	0.000454	4.542706	1.539110	0.036409
 437	2.1800e-01	17.4926	22.427683	0.001545	15.445199	5.232975	0.123789
 438	2.1850e-01	17.5230	22.136415	-0.000727	-7.268329	-2.462576	-0.058254
 439	2.1900e-01	17.5583	21.990780	-0.000363	-3.634164	-1.231288	-0.029127
 440	2.1950e-01	17.5712	22.245641	0.000636	6.359788	2.154754	0.050972
 441	2.2000e-01	17.6145	22.500501	0.000636	6.359788	2.154754	0.050972
 442	2.2050e-01	17.6642	22.354866	-0.000363	-3.634164	-1.231288	-0.029127
 443	2.2100e-01	17.6979	22.536909	0.000454	4.542706	1.539110	0.036409
 444	2.2150e-01	17.7492	22.828178	0.000727	7.268329	2.462576	0.058254
 445	2.2200e-01	17.7701	22.973812	0.000363	3.634164	1.231288	0.029127
 446	2.2250e-01	17.8343	23.046629	0.000182	1.817082	0.615644	0.014563
 447	2.2300e-01	17.8663	23.083038	0.000091	0.908541	0.307822	0.007282
 448	2.2350e-01	17.9193	23.447124	0.000909	9.085411	3.078221	0.072817
 449	2.2400e-01	17.9674	23.155855	-0.000727	-7.268329	-2.462576	-0.058254
 450	2.2450e-01	17.9963	23.556349	0.000999	9.993952	3.386043	0.080099
 451	2.2500e-01	18.0524	23.301489	-0.000636	-6.359788	-2.154754	-0.050972
 452	2.2550e-01	18.0909	23.119446	-0.000454	-4.542706	-1.539110	-0.036409
 453	2.2600e-01	18.1230	23.483532	0.000909	9.085411	3.078221	0.072817
 454	2.2650e-01	18.1423	23.738392	0.000636	6.359788	2.154754	0.050972
 455	2.2700e-01	18.2032	23.847618	0.000273	2.725623	0.923466	0.021845
 456	2.2750e-01	18.2353	23.920435	0.000182	1.817082	0.615644	0.014563
 457	2.2800e-01	18.2433	24.211704	0.000727	7.268329	2.462576	0.058254
 458	2.2850e-01	18.3235	24.175295	-0.000091	-0.908541	-0.307822	-0.007282
 459	2.2900e-01	18.3508	24.430155	0.000636	6.359788	2.154754	0.050972
 460	2.2950e-01	18.3813	24.175295	-0.000636	-6.359788	-2.154754	-0.050972
 461	2.3000e-01	18.4246	24.539381	0.000909	9.085411	3.078221	0.072817
 462	2.3050e-01	18.4872	24.648607	0.000273	2.725623	0.923466	0.021845
 463	2.3100e-01	18.5145	24.575789	-0.000182	-1.817082	-0.615644	-0.014563
 464	2.3150e-01	18.5497	24.211704	-0.000909	-9.085411	-3.078221	-0.072817
 465	2.3200e-01	18.5850	24.757832	0.001363	13.628117	4.617331	0.109226
 466	2.3250e-01	18.6332	24.757832	0.000000	0.000000	0.000000	0.000000
 467	2.3300e-01	18.6845	24.430155	-0.000818	-8.176870	-2.770399	-0.065535
 468	2.3350e-01	18.7102	25.303961	0.002180	21.804986	7.387729	0.174761
 469	2.3400e-01	18.7326	25.449595	0.000363	3.634164	1.231288	0.029127
 470	2.3450e-01	18.7824	25.267552	-0.000454	-4.542706	-1.539110	-0.036409
 471	2.3500e-01	18.8449	25.194735	-0.000182	-1.817082	-0.615644	-0.014563
 472	2.3550e-01	18.8674	25.267552	0.000182	1.817082	0.615644	0.014563
 473	2.3600e-01	18.9091	25.231144	-0.000091	-0.908541	-0.307822	-0.007282
 474	2.3650e-01	18.9444	25.995724	0.001908	19.079363	6.464263	0.152916
 475	2.3700e-01	18.9765	25.449595	-0.001363	-13.628117	-4.617331	-0.109226
 476	2.3750e-01	19.0214	26.068541	0.001545	15.445199	5.232975	0.123789
 477	2.3800e-01	19.0599	25.668047	-0.000999	-9.993952	-3.386043	-0.080099
 478	2.3850e-01	19.1513	25.959315	0.000727	7.268329	2.462576	0.058254
 479	2.3900e-01	19.1594	26.250584	0.000727	7.268329	2.462576	0.058254
 480	2.3950e-01	19.1962	25.886498	-0.000909	-9.085411	-3.078221	-0.072817
 481	2.4000e-01	19.2283	26.141358	0.000636	6.359788	2.154754	0.050972
 482	2.4050e-01	19.2829	26.068541	-0.000182	-1.817082	-0.615644	-0.014563
 483	2.4100e-01	19.3278	26.068541	0.000000	0.000000	0.000000	0.000000
 484	2.4150e-01	19.3599	26.396218	0.000818	8.176870	2.770399	0.065535
 485	2.4200e-01	19.3823	26.068541	-0.000818	-8.176870	-2.770399	-0.065535
 486	2.4250e-01	19.4208	26.651078	0.001454	14.536658	4.925153	0.116507
 487	2.4300e-01	19.4626	26.796713	0.000363	3.634164	1.231288	0.029127
 488	2.4350e-01	19.5059	26.396218	-0.000999	-9.993952	-3.386043	-0.080099
 489	2.4400e-01	19.5412	26.942347	0.001363	13.628117	4.617331	0.109226
 490	2.4450e-01	19.5700	27.415658	0.001181	11.811034	4.001687	0.094662
 491	2.4500e-01	19.6342	27.270024	-0.000363	-3.634164	-1.231288	-0.029127
 492	2.4550e-01	19.6695	27.233616	-0.000091	-0.908541	-0.307822	-0.007282
 493	2.4600e-01	19.7080	27.270024	0.000091	0.908541	0.307822	0.007282
 494	2.4650e-01	19.7625	27.051573	-0.000545	-5.451247	-1.846932	-0.043690
 495	2.4700e-01	19.7850	27.634110	0.001454	14.536658	4.925153	0.116507
 496	2.4750e-01	19.8267	27.488476	-0.000363	-3.634164	-1.231288	-0.029127
 497	2.4800e-01	19.8668	27.706927	0.000545	5.451247	1.846932	0.043690
 498	2.4850e-01	19.9133	27.816153	0.000273	2.725623	0.923466	0.021845
 499	2.4900e-01	19.9502	27.379250	-0.001090	-10.902493	-3.693865	-0.087381
 500	2.4950e-01	19.9871	27.816153	0.001090	10.902493	3.693865	0.087381
 501	2.5000e-01	20.0256	27.561293	-0.000636	-6.359788	-2.154754	-0.050972
 502	2.5050e-01	19.9775	28.107421	-0.001363	-13.628117	-4.617331	0.109226
 503	2.5100e-01	19.9518	27.452067	0.001635	16.353740	5.540797	-0.131071
 504	2.5150e-01	19.9133	27.561293	-0.000273	-2.725623	-0.923466	0.021845
 505	2.5200e-01	19.8684	27.743336	-0.000454	-4.542706	-1.539110	0.036409
 506	2.5250e-01	19.8331	27.197207	0.001363	13.628117	4.617331	-0.109226
 507	2.5300e-01	19.7770	27.452067	-0.000636	-6.359788	-2.154754	0.050972
 508	2.5350e-01	19.7513	27.415658	0.000091	0.908541	0.307822	-0.007282
 509	2.5400e-01	19.7273	27.015164	0.000999	9.993952	3.386043	-0.080099
 510	2.5450e-01	19.6711	27.160798	-0.000363	-3.634164	-1.231288	0.029127
 511	2.5500e-01	19.6198	26.760304	0.000999	9.993952	3.386043	-0.080099
 512	2.5550e-01	19.5861	26.651078	0.000273	2.725623	0.923466	-0.021845
 513	2.5600e-01	19.5315	26.505444	0.000363	3.634164	1.231288	-0.029127
 514	2.5650e-01	19.4962	26.869530	-0.000909	-9.085411	-3.078221	0.072817
 515	2.5700e-01	19.4385	27.124390	-0.000636	-6.359788	-2.154754	0.050972
 516	2.5750e-01	19.4032	26.578261	0.001363	13.628117	4.617331	-0.109226
 517	2.5800e-01	19.3920	26.432627	0.000363	3.634164	1.231288	-0.029127
 518	2.5850e-01	19.3438	26.833121	-0.000999	-9.993952	-3.386043	0.080099
 519	2.5900e-01	19.3037	26.286993	0.001363	13.628117	4.617331	-0.109226
 520	2.5950e-01	19.2781	26.687487	-0.000999	-9.993952	-3.386043	0.080099
 521	2.6000e-01	19.2251	25.704455	0.002453	24.530610	8.311196	-0.196606
 522	2.6050e-01	19.2059	27.015164	-0.003271	-32.707480	-11.081594	0.262142
 523	2.6100e-01	19.1610	26.141358	0.002180	21.804986	7.387729	-0.174761
 524	2.6150e-01	19.1273	26.068541	0.000182	1.817082	0.615644	-0.014563
 525	2.6200e-01	19.0583	26.104950	-0.000091	-0.908541	-0.307822	0.007282
 526	2.6250e-01	19.0214	25.376778	0.001817	18.170822	6.156441	-0.145634
 527	2.6300e-01	18.9813	25.850090	-0.001181	-11.811034	-4.001687	0.094662
 528	2.6350e-01	18.9604	25.740864	0.000273	2.725623	0.923466	-0.021845
 529	2.6400e-01	18.9059	25.558821	0.000454	4.542706	1.539110	-0.036409
 530	2.6450e-01	18.8562	25.740864	-0.000454	-4.542706	-1.539110	0.036409
 531	2.6500e-01	18.8289	25.413187	0.000818	8.176870	2.770399	-0.065535
 532	2.6550e-01	18.7840	25.413187	-0.000000	-0.000000	-0.000000	0.000000
 533	2.6600e-01	18.7487	25.340370	0.000182	1.817082	0.615644	-0.014563
 534	2.6650e-01	18.6973	25.303961	0.000091	0.908541	0.307822	-0.007282
 535	2.6700e-01	18.6524	25.413187	-0.000273	-2.725623	-0.923466	0.021845
 536	2.6750e-01	18.6412	24.685015	0.001817	18.170822	6.156441	-0.145634
 537	2.6800e-01	18.5850	25.049101	-0.000909	-9.085411	-3.078221	0.072817
 538	2.6850e-01	18.5433	25.085510	-0.000091	-0.908541	-0.307822	0.007282
 539	2.6900e-01	18.4984	24.575789	0.001272	12.719575	4.309509	-0.101944
 540	2.6950e-01	18.4583	24.685015	-0.000273	-2.725623	-0.923466	0.021845
 541	2.7000e-01	18.4407	24.612198	0.000182	1.817082	0.615644	-0.014563
 542	2.7050e-01	18.3733	24.466564	0.000363	3.634164	1.231288	-0.029127
 543	2.7100e-01	18.3059	24.575789	-0.000273	-2.725623	-0.923466	0.021845
 544	2.7150e-01	18.2722	24.757832	-0.000454	-4.542706	-1.539110	0.036409
 545	2.7200e-01	18.2465	24.393747	0.000909	9.085411	3.078221	-0.072817
 546	2.7250e-01	18.2209	24.284521	0.000273	2.725623	0.923466	-0.021845
 547	2.7300e-01	18.1824	24.102478	0.000454	4.542706	1.539110	-0.036409
 548	2.7350e-01	18.1599	24.175295	-0.000182	-1.817082	-0.615644	0.014563
 549	2.7400e-01	18.1102	23.884026	0.000727	7.268329	2.462576	-0.058254
 550	2.7450e-01	18.0637	24.066069	-0.000454	-4.542706	-1.539110	0.036409
 551	2.7500e-01	18.0252	23.337898	0.001817	18.170822	6.156441	-0.145634
 552	2.7550e-01	18.0059	23.993252	-0.001635	-16.353740	-5.540797	0.131071
 553	2.7600e-01	17.9289	23.556349	0.001090	10.902493	3.693865	-0.087381
 554	2.7650e-01	17.8952	23.774801	-0.000545	-5.451247	-1.846932	0.043690
 555	2.7700e-01	17.8631	23.192264	0.001454	14.536658	4.925153	-0.116507
 556	2.7750e-01	17.8246	23.083038	0.000273	2.725623	0.923466	-0.021845
 557	2.7800e-01	17.7717	23.447124	-0.000909	-9.085411	-3.078221	0.072817
 558	2.7850e-01	17.7540	23.592758	-0.000363	-3.634164	-1.231288	0.029127
 559	2.7900e-01	17.7027	23.374306	0.000545	5.451247	1.846932	-0.043690
 560	2.7950e-01	17.6401	23.265081	0.000273	2.725623	0.923466	-0.021845
 561	2.8000e-01	17.6129	22.755361	0.001272	12.719575	4.309509	-0.101944
 562	2.8050e-01	17.5680	22.791769	-0.000091	-0.908541	-0.307822	0.007282
 563	2.8100e-01	17.5471	22.609726	0.000454	4.542706	1.539110	-0.036409
 564	2.8150e-01	17.5070	22.573318	0.000091	0.908541	0.307822	-0.007282
 565	2.8200e-01	17.4508	23.301489	-0.001817	-18.170822	-6.156441	0.145634
 566	2.8250e-01	17.4075	22.391275	0.002271	22.713528	7.695551	-0.182043
 567	2.8300e-01	17.3674	22.718952	-0.000818	-8.176870	-2.770399	0.065535
 568	2.8350e-01	17.3578	22.391275	0.000818	8.176870	2.770399	-0.065535
 569	2.8400e-01	17.3273	22.172823	0.000545	5.451247	1.846932	-0.043690
 570	2.8450e-01	17.2551	22.464092	-0.000727	-7.268329	-2.462576	0.058254
 571	2.8500e-01	17.2230	22.245641	0.000545	5.451247	1.846932	-0.043690
 572	2.8550e-01	17.1589	21.335426	0.002271	22.713528	7.695551	-0.182043
 573	2.8600e-01	17.1380	22.136415	-0.001999	-19.987904	-6.772085	0.160198
 574	2.8650e-01	17.0915	22.136415	-0.000000	-0.000000	-0.000000	0.000000
 575	2.8700e-01	17.0690	22.027189	0.000273	2.725623	0.923466	-0.021845
 576	2.8750e-01	17.0289	21.917963	0.000273	2.725623	0.923466	-0.021845
 577	2.8800e-01	16.9872	21.626695	0.000727	7.268329	2.462576	-0.058254
 578	2.8850e-01	16.9519	21.590286	0.000091	0.908541	0.307822	-0.007282
 579	2.8900e-01	16.9070	21.772329	-0.000454	-4.542706	-1.539110	0.036409
 580	2.8950e-01	16.8637	21.444652	0.000818	8.176870	2.770399	-0.065535
 581	2.9000e-01	16.8252	21.262609	0.000454	4.542706	1.539110	-0.036409
 582	2.9050e-01	16.7803	20.862115	0.000999	9.993952	3.386043	-0.080099
 583	2.9100e-01	16.7562	20.825706	0.000091	0.908541	0.307822	-0.007282
 584	2.9150e-01	16.7113	20.934932	-0.000273	-2.725623	-0.923466	0.021845
 585	2.9200e-01	16.6728	20.716480	0.000545	5.451247	1.846932	-0.043690
 586	2.9250e-01	16.6343	21.116975	-0.000999	-9.993952	-3.386043	0.080099
 587	2.9300e-01	16.5830	20.680072	0.001090	10.902493	3.693865	-0.087381
 588	2.9350e-01	16.5525	20.425212	0.000636	6.359788	2.154754	-0.050972
 589	2.9400e-01	16.5092	20.752889	-0.000818	-8.176870	-2.770399	0.065535
 590	2.9450e-01	16.4739	20.570846	0.000454	4.542706	1.539110	-0.036409
 591	2.9500e-01	16.4338	20.607255	-0.000091	-0.908541	-0.307822	0.007282
 592	2.9550e-01	16.4017	20.243169	0.000909	9.085411	3.078221	-0.072817
 593	2.9600e-01	16.3359	20.061126	0.000454	4.542706	1.539110	-0.036409
 594	2.9650e-01	16.2798	20.206760	-0.000363	-3.634164	-1.231288	0.029127
 595	2.9700e-01	16.2413	20.206760	-0.000000	-0.000000	-0.000000	0.000000
 596	2.9750e-01	16.2076	19.660632	0.001363	13.628117	4.617331	-0.109226
 597	2.9800e-01	16.1867	20.133943	-0.001181	-11.811034	-4.001687	0.094662
 598	2.9850e-01	16.1546	20.061126	0.000182	1.817082	0.615644	-0.014563
 599	2.9900e-01	16.1113	19.587814	0.001181	11.811034	4.001687	-0.094662
 600	2.9950e-01	16.0808	19.405772	0.000454	4.542706	1.539110	-0.036409
 601	3.0000e-01	16.0359	19.660632	-0.000636	-6.359788	-2.154754	0.050972
 602	3.0050e-01	15.9846	19.296546	0.000909	9.085411	3.078221	-0.072817
 603	3.0100e-01	15.9397	19.332954	-0.000091	-0.908541	-0.307822	0.007282
 604	3.0150e-01	15.8883	19.332954	-0.000000	-0.000000	-0.000000	0.000000
 605	3.0200e-01	15.8659	19.260137	0.000182	1.817082	0.615644	-0.014563
 606	3.0250e-01	15.8322	19.150911	0.000273	2.725623	0.923466	-0.021845
 607	3.0300e-01	15.7792	19.005277	0.000363	3.634164	1.231288	-0.029127
 608	3.0350e-01	15.7407	18.641191	0.000909	9.085411	3.078221	-0.072817
 609	3.0400e-01	15.7022	18.896051	-0.000636	-6.359788	-2.154754	0.050972
 610	3.0450e-01	15.6685	18.641191	0.000636	6.359788	2.154754	-0.050972
 611	3.0500e-01	15.6092	18.677600	-0.000091	-0.908541	-0.307822	0.007282
 612	3.0550e-01	15.5691	19.150911	-0.001181	-11.811034	-4.001687	0.094662
 613	3.0600e-01	15.5370	18.568374	0.001454	14.536658	4.925153	-0.116507
 614	3.0650e-01	15.4953	18.604783	-0.000091	-0.908541	-0.307822	0.007282
 615	3.0700e-01	15.4584	18.313514	0.000727	7.268329	2.462576	-0.058254
 616	3.0750e-01	15.4071	17.913020	0.000999	9.993952	3.386043	-0.080099
 617	3.0800e-01	15.3894	18.459149	-0.001363	-13.628117	-4.617331	0.109226
 618	3.0850e-01	15.3349	17.840203	0.001545	15.445199	5.232975	-0.123789
 619	3.0900e-01	15.3044	18.058654	-0.000545	-5.451247	-1.846932	0.043690
 620	3.0950e-01	15.2691	18.058654	-0.000000	-0.000000	-0.000000	0.000000
 621	3.1000e-01	15.2402	17.840203	0.000545	5.451247	1.846932	-0.043690
 622	3.1050e-01	15.2129	17.767386	0.000182	1.817082	0.615644	-0.014563
 623	3.1100e-01	15.1584	17.221257	0.001363	13.628117	4.617331	-0.109226
 624	3.1150e-01	15.1119	17.548934	-0.000818	-8.176870	-2.770399	0.065535
 625	3.1200e-01	15.0541	17.621751	-0.000182	-1.817082	-0.615644	0.014563
 626	3.1250e-01	15.0333	17.585343	0.000091	0.908541	0.307822	-0.007282
 627	3.1300e-01	14.9771	16.966397	0.001545	15.445199	5.232975	-0.123789
 628	3.1350e-01	14.9226	17.366891	-0.000999	-9.993952	-3.386043	0.080099
 629	3.1400e-01	14.9081	16.893580	0.001181	11.811034	4.001687	-0.094662
 630	3.1450e-01	14.8889	16.784354	0.000273	2.725623	0.923466	-0.021845
 631	3.1500e-01	14.8151	16.857171	-0.000182	-1.817082	-0.615644	0.014563
 632	3.1550e-01	14.7766	16.857171	-0.000000	-0.000000	-0.000000	0.000000
 633	3.1600e-01	14.7317	16.784354	0.000182	1.817082	0.615644	-0.014563
 634	3.1650e-01	14.7060	16.493085	0.000727	7.268329	2.462576	-0.058254
 635	3.1700e-01	14.6739	16.238225	0.000636	6.359788	2.154754	-0.050972
 636	3.1750e-01	14.6338	16.165408	0.000182	1.817082	0.615644	-0.014563
 637	3.1800e-01	14.5889	16.711537	-0.001363	-13.628117	-4.617331	0.109226
 638	3.1850e-01	14.5552	16.565903	0.000363	3.634164	1.231288	-0.029127
 639	3.1900e-01	14.5103	16.092591	0.001181	11.811034	4.001687	-0.094662
 640	3.1950e-01	14.4654	16.274634	-0.000454	-4.542706	-1.539110	0.036409
 641	3.2000e-01	14.4333	15.801322	0.001181	11.811034	4.001687	-0.094662
 642	3.2050e-01	14.3755	16.638720	-0.002090	-20.896445	-7.079907	0.167479
 643	3.2100e-01	14.3322	15.874140	0.001908	19.079363	6.464263	-0.152916
 644	3.2150e-01	14.3114	14.963925	0.002271	22.713528	7.695551	-0.182043
 645	3.2200e-01	14.2568	15.728505	-0.001908	-19.079363	-6.464263	0.152916
 646	3.2250e-01	14.2247	14.963925	0.001908	19.079363	6.464263	-0.152916
 647	3.2300e-01	14.1750	15.582871	-0.001545	-15.445199	-5.232975	0.123789
 648	3.2350e-01	14.1301	15.328011	0.000636	6.359788	2.154754	-0.050972
 649	3.2400e-01	14.1140	15.473645	-0.000363	-3.634164	-1.231288	0.029127
 650	3.2450e-01	14.0563	15.255194	0.000545	5.451247	1.846932	-0.043690
 651	3.2500e-01	14.0162	15.145968	0.000273	2.725623	0.923466	-0.021845
 652	3.2550e-01	13.9921	15.109559	0.000091	0.908541	0.307822	-0.007282
 653	3.2600e-01	13.9344	14.672657	0.001090	10.902493	3.693865	-0.087381
 654	3.2650e-01	13.9199	15.145968	-0.001181	-11.811034	-4.001687	0.094662
 655	3.2700e-01	13.8590	14.381388	0.001908	19.079363	6.464263	-0.152916
 656	3.2750e-01	13.8108	14.672657	-0.000727	-7.268329	-2.462576	0.058254
 657	3.2800e-01	13.7788	14.672657	-0.000000	-0.000000	-0.000000	0.000000
 658	3.2850e-01	13.7723	14.344979	0.000818	8.176870	2.770399	-0.065535
 659	3.2900e-01	13.7210	14.162936	0.000454	4.542706	1.539110	-0.036409
 660	3.2950e-01	13.6633	14.308571	-0.000363	-3.634164	-1.231288	0.029127
 661	3.3000e-01	13.6312	13.835259	0.001181	11.811034	4.001687	-0.094662
 662	3.3050e-01	13.5814	14.126528	-0.000727	-7.268329	-2.462576	0.058254
 663	3.3100e-01	13.5381	14.053711	0.000182	1.817082	0.615644	-0.014563
 664	3.3150e-01	13.4932	13.762442	0.000727	7.268329	2.462576	-0.058254
 665	3.3200e-01	13.4643	13.580399	0.000454	4.542706	1.539110	-0.036409
 666	3.3250e-01	13.4114	14.272162	-0.001726	-17.262281	-5.848619	0.138353
 667	3.3300e-01	13.3793	13.398356	0.002180	21.804986	7.387729	-0.174761
 668	3.3350e-01	13.3584	13.361948	0.000091	0.908541	0.307822	-0.007282
 669	3.3400e-01	13.3167	13.143496	0.000545	5.451247	1.846932	-0.043690
 670	3.3450e-01	13.2445	13.107088	0.000091	0.908541	0.307822	-0.007282
 671	3.3500e-01	13.2141	13.580399	-0.001181	-11.811034	-4.001687	0.094662
 672	3.3550e-01	13.1884	13.289131	0.000727	7.268329	2.462576	-0.058254
 673	3.3600e-01	13.1643	12.888636	0.000999	9.993952	3.386043	-0.080099
 674	3.3650e-01	13.1066	12.670185	0.000545	5.451247	1.846932	-0.043690
 675	3.3700e-01	13.0713	12.488142	0.000454	4.542706	1.539110	-0.036409
 676	3.3750e-01	13.0055	12.997862	-0.001272	-12.719575	-4.309509	0.101944
 677	3.3800e-01	12.9718	12.124056	0.002180	21.804986	7.387729	-0.174761
 678	3.3850e-01	12.9157	12.779411	-0.001635	-16.353740	-5.540797	0.131071
 679	3.3900e-01	12.9205	12.233282	-0.001363	-13.628117	-4.617331	-0.109226
 680	3.3950e-01	12.8900	12.415325	-0.000454	-4.542706	-1.539110	0.036409
 681	3.4000e-01	12.8226	12.560959	-0.000363	-3.634164	-1.231288	0.029127
 682	3.4050e-01	12.7986	12.488142	0.000182	1.817082	0.615644	-0.014563
 683	3.4100e-01	12.7697	12.342508	0.000363	3.634164	1.231288	-0.029127
 684	3.4150e-01	12.7184	11.978422	0.000909	9.085411	3.078221	-0.072817
 685	3.4200e-01	12.6638	11.323067	0.001635	16.353740	5.540797	-0.131071
 686	3.4250e-01	12.6414	11.723562	-0.000999	-9.993952	-3.386043	0.080099
 687	3.4300e-01	12.5820	12.269690	-0.001363	-13.628117	-4.617331	0.109226
 688	3.4350e-01	12.5323	11.395885	0.002180	21.804986	7.387729	-0.174761
 689	3.4400e-01	12.5034	11.468702	-0.000182	-1.817082	-0.615644	0.014563
 690	3.4450e-01	12.4825	11.395885	0.000182	1.817082	0.615644	-0.014563
 691	3.4500e-01	12.4168	11.323067	0.000182	1.817082	0.615644	-0.014563
 692	3.4550e-01	12.3606	11.213842	0.000273	2.725623	0.923466	-0.021845
 693	3.4600e-01	12.3253	11.213842	-0.000000	-0.000000	-0.000000	0.000000
 694	3.4650e-01	12.3109	11.177433	0.000091	0.908541	0.307822	-0.007282
 695	3.4700e-01	12.2660	10.995390	0.000454	4.542706	1.539110	-0.036409
 696	3.4750e-01	12.1874	10.995390	-0.000000	-0.000000	-0.000000	0.000000
 697	3.4800e-01	12.1809	11.068207	-0.000182	-1.817082	-0.615644	0.014563
 698	3.4850e-01	12.1296	10.704122	0.000909	9.085411	3.078221	-0.072817
 699	3.4900e-01	12.0927	10.995390	-0.000727	-7.268329	-2.462576	0.058254
 700	3.4950e-01	12.0542	10.121584	0.002180	21.804986	7.387729	-0.174761
 701	3.5000e-01	12.0253	10.121584	-0.000000	-0.000000	-0.000000	0.000000
 702	3.5050e-01	12.0077	10.776939	-0.001635	-16.353740	-5.540797	0.131071
 703	3.5100e-01	11.9836	10.194402	0.001454	14.536658	4.925153	-0.116507
 704	3.5150e-01	11.9114	9.975950	0.000545	5.451247	1.846932	-0.043690
 705	3.5200e-01	11.8665	9.866724	0.000273	2.725623	0.923466	-0.021845
 706	3.5250e-01	11.8264	9.648273	0.000545	5.451247	1.846932	-0.043690
 707	3.5300e-01	11.8007	9.429821	0.000545	5.451247	1.846932	-0.043690
 708	3.5350e-01	11.7414	9.539047	-0.000273	-2.725623	-0.923466	0.021845
 709	3.5400e-01	11.6981	9.721090	-0.000454	-4.542706	-1.539110	0.036409
 710	3.5450e-01	11.6852	9.247779	0.001181	11.811034	4.001687	-0.094662
 711	3.5500e-01	11.6275	9.174961	0.000182	1.817082	0.615644	-0.014563
 712	3.5550e-01	11.5826	9.830316	-0.001635	-16.353740	-5.540797	0.131071
 713	3.5600e-01	11.5441	9.357004	0.001181	11.811034	4.001687	-0.094662
 714	3.5650e-01	11.5007	8.847284	0.001272	12.719575	4.309509	-0.101944
 715	3.5700e-01	11.4510	8.992919	-0.000363	-3.634164	-1.231288	0.029127
 716	3.5750e-01	11.4270	8.810876	0.000454	4.542706	1.539110	-0.036409
 717	3.5800e-01	11.3917	8.810876	-0.000000	-0.000000	-0.000000	0.000000
 718	3.5850e-01	11.3788	8.628833	0.000454	4.542706	1.539110	-0.036409
 719	3.5900e-01	11.3050	8.446790	0.000454	4.542706	1.539110	-0.036409
 720	3.5950e-01	11.2569	8.628833	-0.000454	-4.542706	-1.539110	0.036409
 721	3.6000e-01	11.2328	8.410381	0.000545	5.451247	1.846932	-0.043690
 722	3.6050e-01	11.1927	8.155521	0.000636	6.359788	2.154754	-0.050972
 723	3.6100e-01	11.1494	8.191930	-0.000091	-0.908541	-0.307822	0.007282
 724	3.6150e-01	11.1173	7.755027	0.001090	10.902493	3.693865	-0.087381
 725	3.6200e-01	11.0740	7.937070	-0.000454	-4.542706	-1.539110	0.036409
 726	3.6250e-01	11.0548	7.536575	0.000999	9.993952	3.386043	-0.080099
 727	3.6300e-01	10.9858	7.827844	-0.000727	-7.268329	-2.462576	0.058254
 728	3.6350e-01	10.9569	8.191930	-0.000909	-9.085411	-3.078221	0.072817
 729	3.6400e-01	10.9056	7.463758	0.001817	18.170822	6.156441	-0.145634
 730	3.6450e-01	10.8687	7.172490	0.000727	7.268329	2.462576	-0.058254
 731	3.6500e-01	10.8334	7.172490	-0.000000	-0.000000	-0.000000	0.000000
 732	3.6550e-01	10.7756	7.208898	-0.000091	-0.908541	-0.307822	0.007282
 733	3.6600e-01	10.7323	7.099673	0.000273	2.725623	0.923466	-0.021845
 734	3.6650e-01	10.7002	6.954038	0.000363	3.634164	1.231288	-0.029127
 735	3.6700e-01	10.6665	6.881221	0.000182	1.817082	0.615644	-0.014563
 736	3.6750e-01	10.6296	6.626361	0.000636	6.359788	2.154754	-0.050972
 737	3.6800e-01	10.5687	6.589952	0.000091	0.908541	0.307822	-0.007282
 738	3.6850e-01	10.5430	6.699178	-0.000273	-2.725623	-0.923466	0.021845
 739	3.6900e-01	10.5270	6.371501	0.000818	8.176870	2.770399	-0.065535
 740	3.6950e-01	10.4468	6.553544	-0.000454	-4.542706	-1.539110	0.036409
 741	3.7000e-01	10.4355	6.371501	0.000454	4.542706	1.539110	-0.036409
 742	3.7050e-01	10.4163	6.407910	-0.000091	-0.908541	-0.307822	0.007282
 743	3.7100e-01	10.3682	6.189458	0.000545	5.451247	1.846932	-0.043690
 744	3.7150e-01	10.3232	5.971007	0.000545	5.451247	1.846932	-0.043690
 745	3.7200e-01	10.2639	5.971007	-0.000000	-0.000000	-0.000000	0.000000
 746	3.7250e-01	10.2158	5.570512	0.000999	9.993952	3.386043	-0.080099
 747	3.7300e-01	10.1692	5.788964	-0.000545	-5.451247	-1.846932	0.043690
 748	3.7350e-01	10.1211	5.825372	-0.000091	-0.908541	-0.307822	0.007282
 749	3.7400e-01	10.0794	5.606921	0.000545	5.451247	1.846932	-0.043690
 750	3.7450e-01	10.0617	5.170018	0.001090	10.902493	3.693865	-0.087381
 751	3.7500e-01	10.0216	5.643329	-0.001181	-11.811034	-4.001687	0.094662
 752	3.7550e-01	9.9944	5.315652	0.000818	8.176870	2.770399	-0.065535
 753	3.7600e-01	9.9350	5.206427	0.000273	2.725623	0.923466	-0.021845
 754	3.7650e-01	9.8869	5.097201	0.000273	2.725623	0.923466	-0.021845
 755	3.7700e-01	9.8548	4.987975	0.000273	2.725623	0.923466	-0.021845
 756	3.7750e-01	9.8259	3.859309	0.002816	28.164774	9.542484	-0.225733
 757	3.7800e-01	9.7826	4.514664	-0.001635	-16.353740	-5.540797	0.131071
 758	3.7850e-01	9.7393	4.223395	0.000727	7.268329	2.462576	-0.058254
 759	3.7900e-01	9.7056	4.186986	0.000091	0.908541	0.307822	-0.007282
 760	3.7950e-01	9.6623	4.587481	-0.000999	-9.993952	-3.386043	0.080099
 761	3.8000e-01	9.6174	4.296212	0.000727	7.268329	2.462576	-0.058254
 762	3.8050e-01	9.5885	3.932126	0.000909	9.085411	3.078221	-0.072817
 763	3.8100e-01	9.5516	3.932126	-0.000000	-0.000000	-0.000000	0.000000
 764	3.8150e-01	9.5163	3.932126	-0.000000	-0.000000	-0.000000	0.000000
 765	3.8200e-01	9.4602	3.604449	0.000818	8.176870	2.770399	-0.065535
 766	3.8250e-01	9.4152	3.677266	-0.000182	-1.817082	-0.615644	0.014563
 767	3.8300e-01	9.3783	3.349589	0.000818	8.176870	2.770399	-0.065535
 768	3.8350e-01	9.3431	3.859309	-0.001272	-12.719575	-4.309509	0.101944
 769	3.8400e-01	9.2917	3.458815	0.000999	9.993952	3.386043	-0.080099
 770	3.8450e-01	9.2693	3.240363	0.000545	5.451247	1.846932	-0.043690
 771	3.8500e-01	9.2131	2.839869	0.000999	9.993952	3.386043	-0.080099
 772	3.8550e-01	9.1618	2.730643	0.000273	2.725623	0.923466	-0.021845
 773	3.8600e-01	9.1265	3.349589	-0.001545	-15.445199	-5.232975	0.123789
 774	3.8650e-01	9.0976	2.876278	0.001181	11.811034	4.001687	-0.094662
 775	3.8700e-01	9.0623	2.730643	0.000363	3.634164	1.231288	-0.029127
 776	3.8750e-01	9.0318	2.475783	0.000636	6.359788	2.154754	-0.050972
 777	3.8800e-01	8.9885	2.694235	-0.000545	-5.451247	-1.846932	0.043690
 778	3.8850e-01	8.9564	1.929655	0.001908	19.079363	6.464263	-0.152916
 779	3.8900e-01	8.9131	2.293740	-0.000909	-9.085411	-3.078221	0.072817
 780	3.8950e-01	8.8602	2.111697	0.000454	4.542706	1.539110	-0.036409
 781	3.9000e-01	8.8185	2.111697	-0.000000	-0.000000	-0.000000	0.000000
 782	3.9050e-01	8.7784	2.075289	0.000091	0.908541	0.307822	-0.007282
 783	3.9100e-01	8.7415	1.966063	0.000273	2.725623	0.923466	-0.021845
 784	3.9150e-01	8.7062	1.601977	0.000909	9.085411	3.078221	-0.072817
 785	3.9200e-01	8.6805	1.237892	0.000909	9.085411	3.078221	-0.072817
 786	3.9250e-01	8.6308	1.893246	-0.001635	-16.353740	-5.540797	0.131071
 787	3.9300e-01	8.6179	1.201483	0.001726	17.262281	5.848619	-0.138353
 788	3.9350e-01	8.5634	1.055849	0.000363	3.634164	1.231288	-0.029127
 789	3.9400e-01	8.5185	1.019440	0.000091	0.908541	0.307822	-0.007282
 790	3.9450e-01	8.4768	1.092257	-0.000182	-1.817082	-0.615644	0.014563
 791	3.9500e-01	8.4511	0.983032	0.000273	2.725623	0.923466	-0.021845
 792	3.9550e-01	8.4174	0.764580	0.000545	5.451247	1.846932	-0.043690
 793	3.9600e-01	8.3516	0.618946	0.000363	3.634164	1.231288	-0.029127
 794	3.9650e-01	8.3260	1.055849	-0.001090	-10.902493	-3.693865	0.087381
 795	3.9700e-01	8.2650	0.473312	0.001454	14.536658	4.925153	-0.116507
 796	3.9750e-01	8.2329	0.473312	-0.000000	-0.000000	-0.000000	0.000000
 797	3.9800e-01	8.1960	0.072817	0.000999	9.993952	3.386043	-0.080099
 798	3.9850e-01	8.1511	-0.072817	0.000363	3.634164	1.231288	-0.029127
 799	3.9900e-01	8.1030	-0.182043	0.000273	2.725623	0.923466	-0.021845
 800	3.9950e-01	8.0821	0.291269	-0.001181	-11.811034	-4.001687	0.094662
 801	4.0000e-01	8.0372	-0.218451	0.001272	12.719575	4.309509	-0.101944
 802	4.0050e-01	7.9811	-0.509720	0.000727	7.268329	2.462576	-0.058254
 803	4.0100e-01	7.9297	-0.254860	-0.000636	-6.359788	-2.154754	0.050972
 804	4.0150e-01	7.8848	0.036409	-0.000727	-7.268329	-2.462576	0.058254
 805	4.0200e-01	7.8559	-0.436903	0.001181	11.811034	4.001687	-0.094662
 806	4.0250e-01	7.8271	-0.364086	-0.000182	-1.817082	-0.615644	0.014563
 807	4.0300e-01	7.7934	-0.873806	0.001272	12.719575	4.309509	-0.101944
 808	4.0350e-01	7.7468	-0.764580	-0.000273	-2.725623	-0.923466	0.021845
 809	4.0400e-01	7.6987	-1.310709	0.001363	13.628117	4.617331	-0.109226
 810	4.0450e-01	7.6714	-0.910214	-0.000999	-9.993952	-3.386043	0.080099
 811	4.0500e-01	7.6217	-1.019440	0.000273	2.725623	0.923466	-0.021845
 812	4.0550e-01	7.5816	-1.347117	0.000818	8.176870	2.770399	-0.065535
 813	4.0600e-01	7.5383	-1.711203	0.000909	9.085411	3.078221	-0.072817
 814	4.0650e-01	7.4902	-1.529160	-0.000454	-4.542706	-1.539110	0.036409
 815	4.0700e-01	7.4404	-1.820429	0.000727	7.268329	2.462576	-0.058254
 816	4.0750e-01	7.4003	-1.820429	-0.000000	-0.000000	-0.000000	0.000000
 817	4.0800e-01	7.4019	-1.820429	0.000000	0.000000	0.000000	0.000000
 818	4.0850e-01	7.3682	-2.148106	0.000818	8.176870	2.770399	-0.065535
 819	4.0900e-01	7.2944	-2.111697	-0.000091	-0.908541	-0.307822	0.007282
 820	4.0950e-01	7.2287	-2.366558	0.000636	6.359788	2.154754	-0.050972
 821	4.1000e-01	7.1966	-2.002472	-0.000909	-9.085411	-3.078221	0.072817
 822	4.1050e-01	7.1886	-2.694235	0.001726	17.262281	5.848619	-0.138353
 823	4.1100e-01	7.1581	-2.949095	0.000636	6.359788	2.154754	-0.050972
 824	4.1150e-01	7.1148	-2.839869	-0.000273	-2.725623	-0.923466	0.021845
 825	4.1200e-01	7.0586	-2.803460	-0.000091	-0.908541	-0.307822	0.007282
 826	4.1250e-01	7.0201	-2.694235	-0.000273	-2.725623	-0.923466	0.021845
 827	4.1300e-01	6.9624	-2.876278	0.000454	4.542706	1.539110	-0.036409
 828	4.1350e-01	6.9158	-3.240363	0.000909	9.085411	3.078221	-0.072817
 829	4.1400e-01	6.8773	-3.058320	-0.000454	-4.542706	-1.539110	0.036409
 830	4.1450e-01	6.8693	-3.385998	0.000818	8.176870	2.770399	-0.065535
 831	4.1500e-01	6.8260	-3.349589	-0.000091	-0.908541	-0.307822	0.007282
 832	4.1550e-01	6.7667	-3.822901	0.001181	11.811034	4.001687	-0.094662
 833	4.1600e-01	6.7265	-3.895718	0.000182	1.817082	0.615644	-0.014563
 834	4.1650e-01	6.7185	-4.077761	0.000454	4.542706	1.539110	-0.036409
 835	4.1700e-01	6.6704	-3.604449	-0.001181	-11.811034	-4.001687	0.094662
 836	4.1750e-01	6.6078	-4.405438	0.001999	19.987904	6.772085	-0.160198
 837	4.1800e-01	6.5741	-4.223395	-0.000454	-4.542706	-1.539110	0.036409
 838	4.1850e-01	6.5276	-3.640858	-0.001454	-14.536658	-4.925153	0.116507
 839	4.1900e-01	6.5052	-4.842341	0.002998	29.981856	10.158128	-0.240297
 840	4.1950e-01	6.4859	-4.878749	0.000091	0.908541	0.307822	-0.007282
 841	4.2000e-01	6.4410	-4.660298	-0.000545	-5.451247	-1.846932	0.043690
 842	4.2050e-01	6.3961	-4.805932	0.000363	3.634164	1.231288	-0.029127
 843	4.2100e-01	6.3383	-4.951566	0.000363	3.634164	1.231288	-0.029127
 844	4.2150e-01	6.2950	-4.987975	0.000091	0.908541	0.307822	-0.007282
 845	4.2200e-01	6.2421	-5.024384	0.000091	0.908541	0.307822	-0.007282
 846	4.2250e-01	6.2292	-5.388469	0.000909	9.085411	3.078221	-0.072817
 847	4.2300e-01	6.1795	-5.461287	0.000182	1.817082	0.615644	-0.014563
 848	4.2350e-01	6.1201	-5.352061	-0.000273	-2.725623	-0.923466	0.021845
 849	4.2400e-01	6.1089	-6.043824	0.001726	17.262281	5.848619	-0.138353
 850	4.2450e-01	6.0383	-5.825372	-0.000545	-5.451247	-1.846932	0.043690
 851	4.2500e-01	6.0079	-5.825372	-0.000000	-0.000000	-0.000000	0.000000
 852	4.2550e-01	5.9886	-6.298684	0.001181	11.811034	4.001687	-0.094662
 853	4.2600e-01	5.9405	-6.080232	-0.000545	-5.451247	-1.846932	0.043690
 854	4.2650e-01	5.9132	-6.444318	0.000909	9.085411	3.078221	-0.072817
 855	4.2700e-01	5.8956	-6.626361	0.000454	4.542706	1.539110	-0.036409
 856	4.2750e-01	5.8346	-6.262275	-0.000909	-9.085411	-3.078221	0.072817
 857	4.2800e-01	5.7768	-6.662770	0.000999	9.993952	3.386043	-0.080099
 858	4.2850e-01	5.7688	-6.553544	-0.000273	-2.725623	-0.923466	0.021845
 859	4.2900e-01	5.7127	-6.626361	0.000182	1.817082	0.615644	-0.014563
 860	4.2950e-01	5.6309	-7.136081	0.001272	12.719575	4.309509	-0.101944
 861	4.3000e-01	5.6084	-7.099673	-0.000091	-0.908541	-0.307822	0.007282
 862	4.3050e-01	5.5875	-7.063264	-0.000091	-0.908541	-0.307822	0.007282
 863	4.3100e-01	5.5555	-6.990447	-0.000182	-1.817082	-0.615644	0.014563
 864	4.3150e-01	5.5218	-7.572984	0.001454	14.536658	4.925153	-0.116507
 865	4.3200e-01	5.4672	-7.281715	-0.000727	-7.268329	-2.462576	0.058254
 866	4.3250e-01	5.4560	-7.864253	0.001454	14.536658	4.925153	-0.116507
 867	4.3300e-01	5.3694	-7.354533	-0.001272	-12.719575	-4.309509	0.101944
 868	4.3350e-01	5.3373	-7.937070	0.001454	14.536658	4.925153	-0.116507
 869	4.3400e-01	5.3116	-8.155521	0.000545	5.451247	1.846932	-0.043690
 870	4.3450e-01	5.2651	-7.827844	-0.000818	-8.176870	-2.770399	0.065535
 871	4.3500e-01	5.2138	-8.264747	0.001090	10.902493	3.693865	-0.087381
 872	4.3550e-01	5.1913	-7.973478	-0.000727	-7.268329	-2.462576	0.058254
 873	4.3600e-01	5.1416	-8.628833	0.001635	16.353740	5.540797	-0.131071
 874	4.3650e-01	5.1095	-8.337564	-0.000727	-7.268329	-2.462576	0.058254
 875	4.3700e-01	5.0549	-8.774467	0.001090	10.902493	3.693865	-0.087381
 876	4.3750e-01	5.0421	-8.992919	0.000545	5.451247	1.846932	-0.043690
 877	4.3800e-01	4.9844	-9.029327	0.000091	0.908541	0.307822	-0.007282
 878	4.3850e-01	4.9667	-9.102144	0.000182	1.817082	0.615644	-0.014563
 879	4.3900e-01	4.9041	-8.992919	-0.000273	-2.725623	-0.923466	0.021845
 880	4.3950e-01	4.8672	-9.684681	0.001726	17.262281	5.848619	-0.138353
 881	4.4000e-01	4.8127	-9.648273	-0.000091	-0.908541	-0.307822	0.007282
 882	4.4050e-01	4.7742	-9.866724	0.000545	5.451247	1.846932	-0.043690
 883	4.4100e-01	4.7517	-9.793907	-0.000182	-1.817082	-0.615644	0.014563
 884	4.4150e-01	4.6972	-10.194402	0.000999	9.993952	3.386043	-0.080099
 885	4.4200e-01	4.6523	-9.575456	-0.001545	-15.445199	-5.232975	0.123789
 886	4.4250e-01	4.6314	-10.376444	0.001999	19.987904	6.772085	-0.160198
 887	4.4300e-01	4.5705	-10.303627	-0.000182	-1.817082	-0.615644	0.014563
 888	4.4350e-01	4.5191	-10.121584	-0.000454	-4.542706	-1.539110	0.036409
 889	4.4400e-01	4.5287	-10.522079	-0.000999	-9.993952	-3.386043	-0.080099
 890	4.4450e-01	4.4999	-10.340036	-0.000454	-4.542706	-1.539110	0.036409
 891	4.4500e-01	4.4325	-10.922573	0.001454	14.536658	4.925153	-0.116507
 892	4.4550e-01	4.3619	-10.958982	0.000091	0.908541	0.307822	-0.007282
 893	4.4600e-01	4.3266	-10.922573	-0.000091	-0.908541	-0.307822	0.007282
 894	4.4650e-01	4.3074	-11.141025	0.000545	5.451247	1.846932	-0.043690
 895	4.4700e-01	4.2592	-11.323067	0.000454	4.542706	1.539110	-0.036409
 896	4.4750e-01	4.1983	-11.104616	-0.000545	-5.451247	-1.846932	0.043690
 897	4.4800e-01	4.1838	-11.614336	0.001272	12.719575	4.309509	-0.101944
 898	4.4850e-01	4.1389	-11.068207	-0.001363	-13.628117	-4.617331	0.109226
 899	4.4900e-01	4.0812	-11.759970	0.001726	17.262281	5.848619	-0.138353
 900	4.4950e-01	4.0330	-11.723562	-0.000091	-0.908541	-0.307822	0.007282
 901	4.5000e-01	4.0250	-11.832788	0.000273	2.725623	0.923466	-0.021845
 902	4.5050e-01	3.9769	-12.196873	0.000909	9.085411	3.078221	-0.072817
 903	4.5100e-01	3.9304	-11.978422	-0.000545	-5.451247	-1.846932	0.043690
 904	4.5150e-01	3.9175	-12.670185	0.001726	17.262281	5.848619	-0.138353
 905	4.5200e-01	3.8550	-12.087648	-0.001454	-14.536658	-4.925153	0.116507
 906	4.5250e-01	3.8325	-12.815819	0.001817	18.170822	6.156441	-0.145634
 907	4.5300e-01	3.7683	-12.997862	0.000454	4.542706	1.539110	-0.036409
 908	4.5350e-01	3.7379	-12.779411	-0.000545	-5.451247	-1.846932	0.043690
 909	4.5400e-01	3.6945	-12.743002	-0.000091	-0.908541	-0.307822	0.007282
 910	4.5450e-01	3.6881	-13.216313	0.001181	11.811034	4.001687	-0.094662
 911	4.5500e-01	3.6384	-13.543991	0.000818	8.176870	2.770399	-0.065535
 912	4.5550e-01	3.5887	-13.398356	-0.000363	-3.634164	-1.231288	0.029127
 913	4.5600e-01	3.5421	-13.398356	-0.000000	-0.000000	-0.000000	0.000000
 914	4.5650e-01	3.5036	-13.507582	0.000273	2.725623	0.923466	-0.021845
 915	4.5700e-01	3.4700	-13.798851	0.000727	7.268329	2.462576	-0.058254
 916	4.5750e-01	3.4411	-14.162936	0.000909	9.085411	3.078221	-0.072817
 917	4.5800e-01	3.3946	-13.871668	-0.000727	-7.268329	-2.462576	0.058254
 918	4.5850e-01	3.3400	-13.980894	0.000273	2.725623	0.923466	-0.021845
 919	4.5900e-01	3.3015	-14.017302	0.000091	0.908541	0.307822	-0.007282
 920	4.5950e-01	3.2646	-14.162936	0.000363	3.634164	1.231288	-0.029127
 921	4.6000e-01	3.2165	-14.672657	0.001272	12.719575	4.309509	-0.101944
 922	4.6050e-01	3.1892	-14.599839	-0.000182	-1.817082	-0.615644	0.014563
 923	4.6100e-01	3.1234	-14.709065	0.000273	2.725623	0.923466	-0.021845
 924	4.6150e-01	3.0849	-14.818291	0.000273	2.725623	0.923466	-0.021845
 925	4.6200e-01	3.0593	-15.182377	0.000909	9.085411	3.078221	-0.072817
 926	4.6250e-01	3.0336	-15.437237	0.000636	6.359788	2.154754	-0.050972
 927	4.6300e-01	2.9903	-15.437237	-0.000000	-0.000000	-0.000000	0.000000
 928	4.6350e-01	2.9566	-15.655688	0.000545	5.451247	1.846932	-0.043690
 929	4.6400e-01	2.9117	-15.837731	0.000454	4.542706	1.539110	-0.036409
 930	4.6450e-01	2.8652	-15.437237	-0.000999	-9.993952	-3.386043	0.080099
 931	4.6500e-01	2.8042	-16.092591	0.001635	16.353740	5.540797	-0.131071
 932	4.6550e-01	2.7657	-15.692097	-0.000999	-9.993952	-3.386043	0.080099
 933	4.6600e-01	2.7384	-16.056182	0.000909	9.085411	3.078221	-0.072817
 934	4.6650e-01	2.7144	-16.165408	0.000273	2.725623	0.923466	-0.021845
 935	4.6700e-01	2.6662	-16.092591	-0.000182	-1.817082	-0.615644	0.014563
 936	4.6750e-01	2.6358	-16.383860	0.000727	7.268329	2.462576	-0.058254
 937	4.6800e-01	2.5748	-16.201817	-0.000454	-4.542706	-1.539110	0.036409
 938	4.6850e-01	2.5475	-16.747945	0.001363	13.628117	4.617331	-0.109226
 939	4.6900e-01	2.5074	-16.747945	-0.000000	-0.000000	-0.000000	0.000000
 940	4.6950e-01	2.4641	-16.747945	-0.000000	-0.000000	-0.000000	0.000000
 941	4.7000e-01	2.4144	-16.893580	0.000363	3.634164	1.231288	-0.029127
 942	4.7050e-01	2.3839	-17.439708	0.001363	13.628117	4.617331	-0.109226
 943	4.7100e-01	2.3326	-17.621751	0.000454	4.542706	1.539110	-0.036409
 944	4.7150e-01	2.3326	-17.840203	0.000545	5.451247	1.846932	-0.043690
 945	4.7200e-01	2.2844	-17.403300	-0.001090	-10.902493	-3.693865	0.087381
 946	4.7250e-01	2.2331	-17.730977	0.000818	8.176870	2.770399	-0.065535
 947	4.7300e-01	2.1545	-18.058654	0.000818	8.176870	2.770399	-0.065535
 948	4.7350e-01	2.1240	-18.204288	0.000363	3.634164	1.231288	-0.029127
 949	4.7400e-01	2.1096	-18.095063	-0.000273	-2.725623	-0.923466	0.021845
 950	4.7450e-01	2.0871	-18.277106	0.000454	4.542706	1.539110	-0.036409
 951	4.7500e-01	2.0502	-18.095063	-0.000454	-4.542706	-1.539110	0.036409
 952	4.7550e-01	1.9973	-18.786826	0.001726	17.262281	5.848619	-0.138353
 953	4.7600e-01	1.9411	-18.786826	-0.000000	-0.000000	-0.000000	0.000000
 954	4.7650e-01	1.9042	-18.750417	-0.000091	-0.908541	-0.307822	0.007282
 955	4.7700e-01	1.8786	-18.714009	-0.000091	-0.908541	-0.307822	0.007282
 956	4.7750e-01	1.8240	-19.332954	0.001545	15.445199	5.232975	-0.123789
 957	4.7800e-01	1.7550	-19.332954	-0.000000	-0.000000	-0.000000	0.000000
 958	4.7850e-01	1.7294	-19.405772	0.000182	1.817082	0.615644	-0.014563
 959	4.7900e-01	1.7085	-19.660632	0.000636	6.359788	2.154754	-0.050972
 960	4.7950e-01	1.6459	-19.806266	0.000363	3.634164	1.231288	-0.029127
 961	4.8000e-01	1.5946	-19.587814	-0.000545	-5.451247	-1.846932	0.043690
 962	4.8050e-01	1.5770	-20.206760	0.001545	15.445199	5.232975	-0.123789
 963	4.8100e-01	1.5497	-20.315986	0.000273	2.725623	0.923466	-0.021845
 964	4.8150e-01	1.5112	-20.570846	0.000636	6.359788	2.154754	-0.050972
 965	4.8200e-01	1.4855	-20.680072	0.000273	2.725623	0.923466	-0.021845
 966	4.8250e-01	1.4374	-20.680072	-0.000000	-0.000000	-0.000000	0.000000
 967	4.8300e-01	1.3957	-20.534437	-0.000363	-3.634164	-1.231288	0.029127
 968	4.8350e-01	1.3379	-21.153383	0.001545	15.445199	5.232975	-0.123789
 969	4.8400e-01	1.2994	-20.825706	-0.000818	-8.176870	-2.770399	0.065535
 970	4.8450e-01	1.2754	-21.153383	0.000818	8.176870	2.770399	-0.065535
 971	4.8500e-01	1.2513	-21.189792	0.000091	0.908541	0.307822	-0.007282
 972	4.8550e-01	1.2064	-21.408243	0.000545	5.451247	1.846932	-0.043690
 973	4.8600e-01	1.1326	-21.590286	0.000454	4.542706	1.539110	-0.036409
 974	4.8650e-01	1.1117	-21.590286	-0.000000	-0.000000	-0.000000	0.000000
 975	4.8700e-01	1.0668	-22.100006	0.001272	12.719575	4.309509	-0.101944
 976	4.8750e-01	1.0331	-22.136415	0.000091	0.908541	0.307822	-0.007282
 977	4.8800e-01	0.9674	-22.245641	0.000273	2.725623	0.923466	-0.021845
 978	4.8850e-01	0.9417	-22.282049	0.000091	0.908541	0.307822	-0.007282
 979	4.8900e-01	0.9353	-22.536909	0.000636	6.359788	2.154754	-0.050972
 980	4.8950e-01	0.8839	-22.609726	0.000182	1.817082	0.615644	-0.014563
 981	4.9000e-01	0.8390	-22.609726	-0.000000	-0.000000	-0.000000	0.000000
 982	4.9050e-01	0.7877	-22.609726	-0.000000	-0.000000	-0.000000	0.000000
 983	4.9100e-01	0.7572	-22.791769	0.000454	4.542706	1.539110	-0.036409
 984	4.9150e-01	0.7107	-22.900995	0.000273	2.725623	0.923466	-0.021845
 985	4.9200e-01	0.6802	-23.228672	0.000818	8.176870	2.770399	-0.065535
 986	4.9250e-01	0.6273	-23.592758	0.000909	9.085411	3.078221	-0.072817
 987	4.9300e-01	0.5454	-23.556349	-0.000091	-0.908541	-0.307822	0.007282
 988	4.9350e-01	0.5085	-23.447124	-0.000273	-2.725623	-0.923466	0.021845
 989	4.9400e-01	0.4732	-23.701984	0.000636	6.359788	2.154754	-0.050972
 990	4.9450e-01	0.4684	-23.993252	0.000727	7.268329	2.462576	-0.058254
 991	4.9500e-01	0.3995	-24.066069	0.000182	1.817082	0.615644	-0.014563
 992	4.9550e-01	0.3674	-24.430155	0.000909	9.085411	3.078221	-0.072817
 993	4.9600e-01	0.3208	-24.466564	0.000091	0.908541	0.307822	-0.007282
 994	4.9650e-01	0.2856	-24.539381	0.000182	1.817082	0.615644	-0.014563
 995	4.9700e-01	0.2647	-24.976284	0.001090	10.902493	3.693865	-0.087381
 996	4.9750e-01	0.2390	-25.303961	0.000818	8.176870	2.770399	-0.065535
 997	4.9800e-01	0.1829	-25.267552	-0.000091	-0.908541	-0.307822	0.007282
 998	4.9850e-01	0.1235	-25.303961	0.000091	0.908541	0.307822	-0.007282
 999	4.9900e-01	0.0995	-25.740864	0.001090	10.902493	3.693865	-0.087381
1000	4.9950e-01	0.0754	-25.267552	-0.001181	-11.811034	-4.001687	0.094662
1001	5.0000e-01	0.0642	-25.813681	-0.001181	-11.811034	-4.001687	-0.109226

PMax (uC/cm2):	5.54e+01
Pr (uC/cm2):	2.04e+00
-Pr (uC/cm2):	0.00e+00
PLoss (uC/cm2):	0.00e+00
C (Max-Eff) (nF):	2.77e-01
K (Eff):	9.38e+02
Vert. (+/-Pr) Shift (uC/cm2):	1.02e+00
Offset (uC/cm2):	2.79e+01

A (Loop Area - uC/cm2·Volts):	1.03e-01



Hysteresis Version: 5.48.1 - Radiant Technologies, Inc., 1999 - 9/12/24

