»»»»»»»»»»»»»»»»»»»»»»»»»»»»»»»»»»»» Hysteresis ««««««««««««««««««««««««««««««««««««
»»»  Executed Version:	5.48.1
»»»  Vision Version:	5.48.4 (R)
»»»  Vision Compiled:	9/18/24
»»»  Driver Version:	5.47.0
»»»  Windows Version:	Windows 8 or 8.1
»»»  Processor Information:	x86 (AMD or Intel) - 32 Processors
»»»  Tester Name:	PMF21124-494 (100V)
»»»  Tester S/N:	PMF21124-494
»»»  Internal Amp Type:	100V RevK 270k
»»»  Internal Amp S/N:	iAB2-596/K     
»»»  Execution Count:	1
»»»»»»»»»»»»»»»»»»»»»»»»»»»»»»»»»»»»»»»»»»««««««««««««««««««««««««««««««««««««««««««

Stored:	10/10/2025 - 13:18:42
Configured:	10/10/25 10:37:25 AM
Executed:	10/10/25 01:17:52 PM

»»»»»»»»»»»»»»»»»»»»»»»»»»»»»»»»»»» Sample Info ««««««««««««««««««««««««««««««««««««
Sample Name:	Int. Ref. Ferroelectric
Lot Name:	N/A
Wafer Name:	N/A
Die Row/Column:	0/0
Capacitor Number:	0
Sample Area (cm2):	1.00e-04
Sample Thickness (microns):	3.00e-01

Amplifier:	Internal

»»»»»»»»»»»»»»»»»»»»»»»»»»»»»»»»»»» Tester Info «««««««««««««««««««««««««««««««««««
Tester Name:	PMF21124-494 (100V)
Tester Serial Number:	PMF21124-494
Return Signal Amp. Level:	0.02 [Index: 2]

»»»»»»»»»»»»»»»»»»»»»»»»»»»»»»»» Hysteresis Info ««««««««««««««««««««««««««««««««««
Task Name:	Hyst-170
Volts:	20.00
Field:	666.67 (kV/cm)
DCBias:	0.00
DCField:	0.00 (kV/cm)
Hysteresis Period (ms):	5.00e-01
Preset:	Enabled
Preset Delay (ms):	1.00e+03
Profile:	Standard Monopolar

»»»»»»»»»»»»»»»»»»»»»»»»»»»»»»»»»»»»»» Data «««««««««««««««««««««««««««««««««««««««
Points:	1001

Valid Data

Point	Time (ms)	Drive Voltage	Measured Polarization (uC/cm2)	Capacitance (uF)	Normalized Capacitance (uF/cm2)	Dielectric Constant	Instantaneous Current (mA)
   1	0.0000e+00	0.0513	-22.919199	0.000359	3.588464	1.215805	-0.029127
   2	5.0000e-04	0.0449	-23.064834	0.000359	3.588464	1.215805	-0.029127
   3	1.0000e-03	0.1059	-23.210468	-0.000359	-3.588464	-1.215805	-0.029127
   4	1.5000e-03	0.1781	-23.101242	0.000269	2.691348	0.911853	0.021845
   5	2.0000e-03	0.2102	-22.809973	0.000718	7.176929	2.431609	0.058254
   6	2.5000e-03	0.2374	-22.555113	0.000628	6.279813	2.127658	0.050972
   7	3.0000e-03	0.2807	-22.591522	-0.000090	-0.897116	-0.303951	-0.007282
   8	3.5000e-03	0.3176	-22.700748	-0.000269	-2.691348	-0.911853	-0.021845
   9	4.0000e-03	0.3353	-22.154619	0.001346	13.456741	4.559267	0.109226
  10	4.5000e-03	0.3995	-22.336662	-0.000449	-4.485580	-1.519756	-0.036409
  11	5.0000e-03	0.4460	-22.227436	0.000269	2.691348	0.911853	0.021845
  12	5.5000e-03	0.4620	-22.045393	0.000449	4.485580	1.519756	0.036409
  13	6.0000e-03	0.5085	-21.717716	0.000807	8.074045	2.735560	0.065535
  14	6.5000e-03	0.5567	-21.717716	0.000000	0.000000	0.000000	0.000000
  15	7.0000e-03	0.6064	-21.644899	0.000179	1.794232	0.607902	0.014563
  16	7.5000e-03	0.6609	-21.426448	0.000538	5.382696	1.823707	0.043690
  17	8.0000e-03	0.7171	-21.426448	0.000000	0.000000	0.000000	0.000000
  18	8.5000e-03	0.7283	-21.717716	-0.000718	-7.176929	-2.431609	-0.058254
  19	9.0000e-03	0.7652	-20.989545	0.001794	17.942322	6.079023	0.145634
  20	9.5000e-03	0.7973	-21.062362	-0.000179	-1.794232	-0.607902	-0.014563
  21	1.0000e-02	0.8101	-20.807502	0.000628	6.279813	2.127658	0.050972
  22	1.0500e-02	0.9016	-20.916727	-0.000269	-2.691348	-0.911853	-0.021845
  23	1.1000e-02	0.9609	-20.516233	0.000987	9.868277	3.343463	0.080099
  24	1.1500e-02	0.9497	-20.843910	0.000807	8.074045	2.735560	-0.065535
  25	1.2000e-02	0.9978	-20.625459	0.000538	5.382696	1.823707	0.043690
  26	1.2500e-02	1.0444	-20.589050	0.000090	0.897116	0.303951	0.007282
  27	1.3000e-02	1.0668	-20.297782	0.000718	7.176929	2.431609	0.058254
  28	1.3500e-02	1.1326	-19.897287	0.000987	9.868277	3.343463	0.080099
  29	1.4000e-02	1.1486	-19.897287	0.000000	0.000000	0.000000	0.000000
  30	1.4500e-02	1.2000	-20.042922	-0.000359	-3.588464	-1.215805	-0.029127
  31	1.5000e-02	1.2706	-19.715244	0.000807	8.074045	2.735560	0.065535
  32	1.5500e-02	1.2914	-20.079330	-0.000897	-8.971161	-3.039512	-0.072817
  33	1.6000e-02	1.3604	-19.824470	0.000628	6.279813	2.127658	0.050972
  34	1.6500e-02	1.3476	-19.351159	-0.001166	-11.662509	-3.951365	0.094662
  35	1.7000e-02	1.4101	-19.460384	-0.000269	-2.691348	-0.911853	-0.021845
  36	1.7500e-02	1.4534	-19.642427	-0.000449	-4.485580	-1.519756	-0.036409
  37	1.8000e-02	1.5032	-18.695804	0.002333	23.325018	7.902730	0.189325
  38	1.8500e-02	1.5240	-18.914256	-0.000538	-5.382696	-1.823707	-0.043690
  39	1.9000e-02	1.5577	-18.877847	0.000090	0.897116	0.303951	0.007282
  40	1.9500e-02	1.6010	-19.023481	-0.000359	-3.588464	-1.215805	-0.029127
  41	2.0000e-02	1.6123	-18.695804	0.000807	8.074045	2.735560	0.065535
  42	2.0500e-02	1.6812	-18.805030	-0.000269	-2.691348	-0.911853	-0.021845
  43	2.1000e-02	1.7358	-18.331719	0.001166	11.662509	3.951365	0.094662
  44	2.1500e-02	1.7839	-18.477353	-0.000359	-3.588464	-1.215805	-0.029127
  45	2.2000e-02	1.8128	-17.894816	0.001435	14.353857	4.863218	0.116507
  46	2.2500e-02	1.8497	-18.186084	-0.000718	-7.176929	-2.431609	-0.058254
  47	2.3000e-02	1.9058	-17.858407	0.000807	8.074045	2.735560	0.065535
  48	2.3500e-02	1.9171	-17.821998	0.000090	0.897116	0.303951	0.007282
  49	2.4000e-02	1.9572	-18.004041	-0.000449	-4.485580	-1.519756	-0.036409
  50	2.4500e-02	2.0037	-17.530730	0.001166	11.662509	3.951365	0.094662
  51	2.5000e-02	2.0181	-17.494321	0.000090	0.897116	0.303951	0.007282
  52	2.5500e-02	2.0887	-17.603547	-0.000269	-2.691348	-0.911853	-0.021845
  53	2.6000e-02	2.1240	-17.676364	-0.000179	-1.794232	-0.607902	-0.014563
  54	2.6500e-02	2.1609	-17.312278	0.000897	8.971161	3.039512	0.072817
  55	2.7000e-02	2.2090	-17.130235	0.000449	4.485580	1.519756	0.036409
  56	2.7500e-02	2.2347	-17.421504	-0.000718	-7.176929	-2.431609	-0.058254
  57	2.8000e-02	2.2700	-17.312278	0.000269	2.691348	0.911853	0.021845
  58	2.8500e-02	2.3534	-16.584107	0.001794	17.942322	6.079023	0.145634
  59	2.9000e-02	2.3550	-16.547698	0.000090	0.897116	0.303951	0.007282
  60	2.9500e-02	2.4112	-16.365655	0.000449	4.485580	1.519756	0.036409
  61	3.0000e-02	2.4449	-16.584107	-0.000538	-5.382696	-1.823707	-0.043690
  62	3.0500e-02	2.4801	-16.511290	0.000179	1.794232	0.607902	0.014563
  63	3.1000e-02	2.5058	-16.292838	0.000538	5.382696	1.823707	0.043690
  64	3.1500e-02	2.5668	-16.183612	0.000269	2.691348	0.911853	0.021845
  65	3.2000e-02	2.6229	-16.037978	0.000359	3.588464	1.215805	0.029127
  66	3.2500e-02	2.6390	-16.074387	-0.000090	-0.897116	-0.303951	-0.007282
  67	3.3000e-02	2.6534	-15.710301	0.000897	8.971161	3.039512	0.072817
  68	3.3500e-02	2.7176	-15.601075	0.000269	2.691348	0.911853	0.021845
  69	3.4000e-02	2.7705	-15.783118	-0.000449	-4.485580	-1.519756	-0.036409
  70	3.4500e-02	2.8074	-15.673892	0.000269	2.691348	0.911853	0.021845
  71	3.5000e-02	2.8427	-15.236989	0.001077	10.765393	3.647414	0.087381
  72	3.5500e-02	2.9165	-15.382624	-0.000359	-3.588464	-1.215805	-0.029127
  73	3.6000e-02	2.9037	-15.018538	-0.000897	-8.971161	-3.039512	0.072817
  74	3.6500e-02	2.9646	-15.054947	-0.000090	-0.897116	-0.303951	-0.007282
  75	3.7000e-02	3.0111	-14.800087	0.000628	6.279813	2.127658	0.050972
  76	3.7500e-02	3.0577	-14.654452	0.000359	3.588464	1.215805	0.029127
  77	3.8000e-02	3.1026	-14.763678	-0.000269	-2.691348	-0.911853	-0.021845
  78	3.8500e-02	3.1266	-14.508818	0.000628	6.279813	2.127658	0.050972
  79	3.9000e-02	3.1539	-14.436001	0.000179	1.794232	0.607902	0.014563
  80	3.9500e-02	3.2181	-14.472409	-0.000090	-0.897116	-0.303951	-0.007282
  81	4.0000e-02	3.2341	-14.253958	0.000538	5.382696	1.823707	0.043690
  82	4.0500e-02	3.2646	-14.290366	-0.000090	-0.897116	-0.303951	-0.007282
  83	4.1000e-02	3.3304	-14.144732	0.000359	3.588464	1.215805	0.029127
  84	4.1500e-02	3.3737	-13.853464	0.000718	7.176929	2.431609	0.058254
  85	4.2000e-02	3.4250	-13.889872	-0.000090	-0.897116	-0.303951	-0.007282
  86	4.2500e-02	3.4635	-13.817055	0.000179	1.794232	0.607902	0.014563
  87	4.3000e-02	3.4956	-13.889872	-0.000179	-1.794232	-0.607902	-0.014563
  88	4.3500e-02	3.5052	-13.307335	0.001435	14.353857	4.863218	0.116507
  89	4.4000e-02	3.5871	-13.525786	-0.000538	-5.382696	-1.823707	-0.043690
  90	4.4500e-02	3.6143	-13.635012	-0.000269	-2.691348	-0.911853	-0.021845
  91	4.5000e-02	3.6256	-13.125292	0.001256	12.559625	4.255316	0.101944
  92	4.5500e-02	3.6801	-13.125292	0.000000	0.000000	0.000000	0.000000
  93	4.6000e-02	3.7330	-13.125292	0.000000	0.000000	0.000000	0.000000
  94	4.6500e-02	3.7587	-12.943249	0.000449	4.485580	1.519756	0.036409
  95	4.7000e-02	3.8117	-12.542755	0.000987	9.868277	3.343463	0.080099
  96	4.7500e-02	3.8614	-12.651980	-0.000269	-2.691348	-0.911853	-0.021845
  97	4.8000e-02	3.8855	-12.651980	0.000000	0.000000	0.000000	0.000000
  98	4.8500e-02	3.9127	-12.324303	0.000807	8.074045	2.735560	0.065535
  99	4.9000e-02	3.9576	-12.178669	0.000359	3.588464	1.215805	0.029127
 100	4.9500e-02	4.0042	-12.397120	-0.000538	-5.382696	-1.823707	-0.043690
 101	5.0000e-02	4.0443	-11.814583	0.001435	14.353857	4.863218	0.116507
 102	5.0500e-02	4.0860	-12.324303	-0.001256	-12.559625	-4.255316	-0.101944
 103	5.1000e-02	4.1100	-11.850992	0.001166	11.662509	3.951365	0.094662
 104	5.1500e-02	4.1469	-11.923809	-0.000179	-1.794232	-0.607902	-0.014563
 105	5.2000e-02	4.1854	-11.778175	0.000359	3.588464	1.215805	0.029127
 106	5.2500e-02	4.2705	-11.377680	0.000987	9.868277	3.343463	0.080099
 107	5.3000e-02	4.2961	-11.814583	-0.001077	-10.765393	-3.647414	-0.087381
 108	5.3500e-02	4.3411	-11.450497	0.000897	8.971161	3.039512	0.072817
 109	5.4000e-02	4.3443	-11.486906	-0.000090	-0.897116	-0.303951	-0.007282
 110	5.4500e-02	4.3780	-11.232046	0.000628	6.279813	2.127658	0.050972
 111	5.5000e-02	4.4469	-11.013595	0.000538	5.382696	1.823707	0.043690
 112	5.5500e-02	4.4550	-10.904369	0.000269	2.691348	0.911853	0.021845
 113	5.6000e-02	4.5095	-11.086412	-0.000449	-4.485580	-1.519756	-0.036409
 114	5.6500e-02	4.5705	-10.831552	0.000628	6.279813	2.127658	0.050972
 115	5.7000e-02	4.6314	-10.576692	0.000628	6.279813	2.127658	0.050972
 116	5.7500e-02	4.6571	-10.503874	0.000179	1.794232	0.607902	0.014563
 117	5.8000e-02	4.6988	-10.576692	-0.000179	-1.794232	-0.607902	-0.014563
 118	5.8500e-02	4.7132	-10.321832	0.000628	6.279813	2.127658	0.050972
 119	5.9000e-02	4.7566	-10.212606	0.000269	2.691348	0.911853	0.021845
 120	5.9500e-02	4.8031	-10.139789	0.000179	1.794232	0.607902	0.014563
 121	6.0000e-02	4.8287	-9.921337	0.000538	5.382696	1.823707	0.043690
 122	6.0500e-02	4.8945	-10.176197	-0.000628	-6.279813	-2.127658	-0.050972
 123	6.1000e-02	4.9234	-10.103380	0.000179	1.794232	0.607902	0.014563
 124	6.1500e-02	4.9635	-9.739294	0.000897	8.971161	3.039512	0.072817
 125	6.2000e-02	4.9699	-9.630069	0.000269	2.691348	0.911853	0.021845
 126	6.2500e-02	5.0437	-9.448026	0.000449	4.485580	1.519756	0.036409
 127	6.3000e-02	5.0806	-9.557251	-0.000269	-2.691348	-0.911853	-0.021845
 128	6.3500e-02	5.1207	-9.666477	-0.000269	-2.691348	-0.911853	-0.021845
 129	6.4000e-02	5.1737	-9.411617	0.000628	6.279813	2.127658	0.050972
 130	6.4500e-02	5.2025	-9.011123	0.000987	9.868277	3.343463	0.080099
 131	6.5000e-02	5.2202	-8.901897	0.000269	2.691348	0.911853	0.021845
 132	6.5500e-02	5.2667	-8.938306	-0.000090	-0.897116	-0.303951	-0.007282
 133	6.6000e-02	5.3309	-8.865488	0.000179	1.794232	0.607902	0.014563
 134	6.6500e-02	5.3774	-8.792671	0.000179	1.794232	0.607902	0.014563
 135	6.7000e-02	5.4079	-8.501403	0.000718	7.176929	2.431609	0.058254
 136	6.7500e-02	5.4047	-8.574220	0.000179	1.794232	0.607902	-0.014563
 137	6.8000e-02	5.4608	-8.355768	0.000538	5.382696	1.823707	0.043690
 138	6.8500e-02	5.5121	-8.647037	-0.000718	-7.176929	-2.431609	-0.058254
 139	6.9000e-02	5.5699	-8.100908	0.001346	13.456741	4.559267	0.109226
 140	6.9500e-02	5.6052	-8.210134	-0.000269	-2.691348	-0.911853	-0.021845
 141	7.0000e-02	5.6597	-7.991683	0.000538	5.382696	1.823707	0.043690
 142	7.0500e-02	5.6806	-8.100908	-0.000269	-2.691348	-0.911853	-0.021845
 143	7.1000e-02	5.7287	-7.664005	0.001077	10.765393	3.647414	0.087381
 144	7.1500e-02	5.7592	-7.773231	-0.000269	-2.691348	-0.911853	-0.021845
 145	7.2000e-02	5.8089	-7.518371	0.000628	6.279813	2.127658	0.050972
 146	7.2500e-02	5.8426	-7.518371	0.000000	0.000000	0.000000	0.000000
 147	7.3000e-02	5.8843	-7.627597	-0.000269	-2.691348	-0.911853	-0.021845
 148	7.3500e-02	5.9308	-7.299920	0.000807	8.074045	2.735560	0.065535
 149	7.4000e-02	5.9421	-7.190694	0.000269	2.691348	0.911853	0.021845
 150	7.4500e-02	6.0014	-7.045060	0.000359	3.588464	1.215805	0.029127
 151	7.5000e-02	6.0544	-7.008651	0.000090	0.897116	0.303951	0.007282
 152	7.5500e-02	6.0977	-6.972242	0.000090	0.897116	0.303951	0.007282
 153	7.6000e-02	6.1089	-6.644565	0.000807	8.074045	2.735560	0.065535
 154	7.6500e-02	6.1442	-6.571748	0.000179	1.794232	0.607902	0.014563
 155	7.7000e-02	6.2084	-6.535340	0.000090	0.897116	0.303951	0.007282
 156	7.7500e-02	6.2292	-6.426114	0.000269	2.691348	0.911853	0.021845
 157	7.8000e-02	6.2629	-6.207662	0.000538	5.382696	1.823707	0.043690
 158	7.8500e-02	6.3319	-6.280480	-0.000179	-1.794232	-0.607902	-0.014563
 159	7.9000e-02	6.3736	-6.353297	-0.000179	-1.794232	-0.607902	-0.014563
 160	7.9500e-02	6.4121	-5.952802	0.000987	9.868277	3.343463	0.080099
 161	8.0000e-02	6.4266	-6.134845	-0.000449	-4.485580	-1.519756	-0.036409
 162	8.0500e-02	6.4875	-6.171254	-0.000090	-0.897116	-0.303951	-0.007282
 163	8.1000e-02	6.4715	-5.807168	-0.000897	-8.971161	-3.039512	0.072817
 164	8.1500e-02	6.5677	-5.843577	-0.000090	-0.897116	-0.303951	-0.007282
 165	8.2000e-02	6.6143	-5.661534	0.000449	4.485580	1.519756	0.036409
 166	8.2500e-02	6.6447	-5.479491	0.000449	4.485580	1.519756	0.036409
 167	8.3000e-02	6.6800	-5.625125	-0.000359	-3.588464	-1.215805	-0.029127
 168	8.3500e-02	6.7249	-5.333857	0.000718	7.176929	2.431609	0.058254
 169	8.4000e-02	6.7522	-5.261039	0.000179	1.794232	0.607902	0.014563
 170	8.4500e-02	6.8148	-4.896954	0.000897	8.971161	3.039512	0.072817
 171	8.5000e-02	6.8453	-4.896954	0.000000	0.000000	0.000000	0.000000
 172	8.5500e-02	6.8870	-5.078996	-0.000449	-4.485580	-1.519756	-0.036409
 173	8.6000e-02	6.9351	-4.969771	0.000269	2.691348	0.911853	0.021845
 174	8.6500e-02	6.9672	-5.042588	-0.000179	-1.794232	-0.607902	-0.014563
 175	8.7000e-02	6.9929	-4.605685	0.001077	10.765393	3.647414	0.087381
 176	8.7500e-02	7.0394	-4.314416	0.000718	7.176929	2.431609	0.058254
 177	8.8000e-02	7.0763	-4.569276	-0.000628	-6.279813	-2.127658	-0.050972
 178	8.8500e-02	7.1228	-4.387234	0.000449	4.485580	1.519756	0.036409
 179	8.9000e-02	7.1645	-4.387234	0.000000	0.000000	0.000000	0.000000
 180	8.9500e-02	7.1918	-4.095965	0.000718	7.176929	2.431609	0.058254
 181	9.0000e-02	7.2239	-4.023148	0.000179	1.794232	0.607902	0.014563
 182	9.0500e-02	7.2720	-3.695471	0.000807	8.074045	2.735560	0.065535
 183	9.1000e-02	7.3105	-3.950331	-0.000628	-6.279813	-2.127658	-0.050972
 184	9.1500e-02	7.3634	-3.731879	0.000538	5.382696	1.823707	0.043690
 185	9.2000e-02	7.3891	-3.659062	0.000179	1.794232	0.607902	0.014563
 186	9.2500e-02	7.4356	-3.622653	0.000090	0.897116	0.303951	0.007282
 187	9.3000e-02	7.4629	-3.404202	0.000538	5.382696	1.823707	0.043690
 188	9.3500e-02	7.5110	-3.258568	0.000359	3.588464	1.215805	0.029127
 189	9.4000e-02	7.5335	-3.294976	-0.000090	-0.897116	-0.303951	-0.007282
 190	9.4500e-02	7.5752	-3.112933	0.000449	4.485580	1.519756	0.036409
 191	9.5000e-02	7.6618	-3.112933	0.000000	0.000000	0.000000	0.000000
 192	9.5500e-02	7.6779	-3.076525	0.000090	0.897116	0.303951	0.007282
 193	9.6000e-02	7.7228	-2.858073	0.000538	5.382696	1.823707	0.043690
 194	9.6500e-02	7.7677	-2.967299	-0.000269	-2.691348	-0.911853	-0.021845
 195	9.7000e-02	7.8110	-2.676030	0.000718	7.176929	2.431609	0.058254
 196	9.7500e-02	7.8110	-2.457579	-0.000538	-5.382696	-1.823707	0.043690
 197	9.8000e-02	7.8607	-2.348353	0.000269	2.691348	0.911853	0.021845
 198	9.8500e-02	7.9281	-2.603213	-0.000628	-6.279813	-2.127658	-0.050972
 199	9.9000e-02	7.9634	-2.676030	-0.000179	-1.794232	-0.607902	-0.014563
 200	9.9500e-02	7.9955	-2.020676	0.001615	16.148089	5.471121	0.131071
 201	1.0000e-01	8.0196	-2.166310	-0.000359	-3.588464	-1.215805	-0.029127
 202	1.0050e-01	8.0629	-1.947859	0.000538	5.382696	1.823707	0.043690
 203	1.0100e-01	8.1270	-1.729407	0.000538	5.382696	1.823707	0.043690
 204	1.0150e-01	8.1399	-1.838633	-0.000269	-2.691348	-0.911853	-0.021845
 205	1.0200e-01	8.1960	-1.583773	0.000628	6.279813	2.127658	0.050972
 206	1.0250e-01	8.2425	-1.292504	0.000718	7.176929	2.431609	0.058254
 207	1.0300e-01	8.2714	-1.365322	-0.000179	-1.794232	-0.607902	-0.014563
 208	1.0350e-01	8.3115	-1.401730	-0.000090	-0.897116	-0.303951	-0.007282
 209	1.0400e-01	8.3805	-1.328913	0.000179	1.794232	0.607902	0.014563
 210	1.0450e-01	8.3998	-1.110462	0.000538	5.382696	1.823707	0.043690
 211	1.0500e-01	8.4254	-1.110462	0.000000	0.000000	0.000000	0.000000
 212	1.0550e-01	8.4864	-0.964827	0.000359	3.588464	1.215805	0.029127
 213	1.0600e-01	8.5409	-0.819193	0.000359	3.588464	1.215805	0.029127
 214	1.0650e-01	8.5778	-0.855602	-0.000090	-0.897116	-0.303951	-0.007282
 215	1.0700e-01	8.5907	-0.600742	0.000628	6.279813	2.127658	0.050972
 216	1.0750e-01	8.6372	-0.709967	-0.000269	-2.691348	-0.911853	-0.021845
 217	1.0800e-01	8.6645	-0.382290	0.000807	8.074045	2.735560	0.065535
 218	1.0850e-01	8.7286	-0.600742	-0.000538	-5.382696	-1.823707	-0.043690
 219	1.0900e-01	8.7607	-0.418699	0.000449	4.485580	1.519756	0.036409
 220	1.0950e-01	8.8040	-0.018204	0.000987	9.868277	3.343463	0.080099
 221	1.1000e-01	8.8441	0.018204	0.000090	0.897116	0.303951	0.007282
 222	1.1050e-01	8.8650	-0.163839	-0.000449	-4.485580	-1.519756	-0.036409
 223	1.1100e-01	8.9211	0.200247	0.000897	8.971161	3.039512	0.072817
 224	1.1150e-01	8.9612	0.091021	-0.000269	-2.691348	-0.911853	-0.021845
 225	1.1200e-01	9.0014	0.455107	0.000897	8.971161	3.039512	0.072817
 226	1.1250e-01	9.0671	0.200247	-0.000628	-6.279813	-2.127658	-0.050972
 227	1.1300e-01	9.0960	0.382290	0.000449	4.485580	1.519756	0.036409
 228	1.1350e-01	9.1217	0.418699	0.000090	0.897116	0.303951	0.007282
 229	1.1400e-01	9.1521	0.600742	0.000449	4.485580	1.519756	0.036409
 230	1.1450e-01	9.1746	0.527924	-0.000179	-1.794232	-0.607902	-0.014563
 231	1.1500e-01	9.2404	0.527924	0.000000	0.000000	0.000000	0.000000
 232	1.1550e-01	9.2773	1.183279	0.001615	16.148089	5.471121	0.131071
 233	1.1600e-01	9.3238	1.001236	-0.000449	-4.485580	-1.519756	-0.036409
 234	1.1650e-01	9.3575	1.401730	0.000987	9.868277	3.343463	0.080099
 235	1.1700e-01	9.3960	1.401730	0.000000	0.000000	0.000000	0.000000
 236	1.1750e-01	9.4505	1.474547	0.000179	1.794232	0.607902	0.014563
 237	1.1800e-01	9.4682	1.365322	-0.000269	-2.691348	-0.911853	-0.021845
 238	1.1850e-01	9.5195	1.292504	-0.000179	-1.794232	-0.607902	-0.014563
 239	1.1900e-01	9.5853	1.401730	0.000269	2.691348	0.911853	0.021845
 240	1.1950e-01	9.6061	1.620182	0.000538	5.382696	1.823707	0.043690
 241	1.2000e-01	9.6527	2.020676	0.000987	9.868277	3.343463	0.080099
 242	1.2050e-01	9.6639	1.729407	-0.000718	-7.176929	-2.431609	-0.058254
 243	1.2100e-01	9.7409	2.020676	0.000718	7.176929	2.431609	0.058254
 244	1.2150e-01	9.7537	1.802225	-0.000538	-5.382696	-1.823707	-0.043690
 245	1.2200e-01	9.7987	2.275536	0.001166	11.662509	3.951365	0.094662
 246	1.2250e-01	9.8372	1.838633	-0.001077	-10.765393	-3.647414	-0.087381
 247	1.2300e-01	9.8869	2.348353	0.001256	12.559625	4.255316	0.101944
 248	1.2350e-01	9.9158	2.457579	0.000269	2.691348	0.911853	0.021845
 249	1.2400e-01	9.9607	2.166310	-0.000718	-7.176929	-2.431609	-0.058254
 250	1.2450e-01	10.0072	2.894482	0.001794	17.942322	6.079023	0.145634
 251	1.2500e-01	10.0409	2.676030	-0.000538	-5.382696	-1.823707	-0.043690
 252	1.2550e-01	10.0842	2.785256	0.000269	2.691348	0.911853	0.021845
 253	1.2600e-01	10.1179	2.858073	0.000179	1.794232	0.607902	0.014563
 254	1.2650e-01	10.1484	3.003708	0.000359	3.588464	1.215805	0.029127
 255	1.2700e-01	10.2077	3.185750	0.000449	4.485580	1.519756	0.036409
 256	1.2750e-01	10.2591	3.294976	0.000269	2.691348	0.911853	0.021845
 257	1.2800e-01	10.2815	3.076525	-0.000538	-5.382696	-1.823707	-0.043690
 258	1.2850e-01	10.3473	3.440611	0.000897	8.971161	3.039512	0.072817
 259	1.2900e-01	10.3746	3.331385	-0.000269	-2.691348	-0.911853	-0.021845
 260	1.2950e-01	10.3874	3.258568	-0.000179	-1.794232	-0.607902	-0.014563
 261	1.3000e-01	10.4323	3.841105	0.001435	14.353857	4.863218	0.116507
 262	1.3050e-01	10.4724	3.586245	-0.000628	-6.279813	-2.127658	-0.050972
 263	1.3100e-01	10.5238	3.986739	0.000987	9.868277	3.343463	0.080099
 264	1.3150e-01	10.5895	3.804696	-0.000449	-4.485580	-1.519756	-0.036409
 265	1.3200e-01	10.5992	3.841105	0.000090	0.897116	0.303951	0.007282
 266	1.3250e-01	10.6313	4.241599	0.000987	9.868277	3.343463	0.080099
 267	1.3300e-01	10.6794	3.913922	-0.000807	-8.074045	-2.735560	-0.065535
 268	1.3350e-01	10.7371	4.350825	0.001077	10.765393	3.647414	0.087381
 269	1.3400e-01	10.7371	4.350825	-0.000000	-0.000000	-0.000000	0.000000
 270	1.3450e-01	10.8093	4.278008	-0.000179	-1.794232	-0.607902	-0.014563
 271	1.3500e-01	10.8494	4.532868	0.000628	6.279813	2.127658	0.050972
 272	1.3550e-01	10.8735	4.569276	0.000090	0.897116	0.303951	0.007282
 273	1.3600e-01	10.9377	4.569276	0.000000	0.000000	0.000000	0.000000
 274	1.3650e-01	10.9681	4.569276	0.000000	0.000000	0.000000	0.000000
 275	1.3700e-01	10.9970	4.569276	0.000000	0.000000	0.000000	0.000000
 276	1.3750e-01	11.0339	4.714911	0.000359	3.588464	1.215805	0.029127
 277	1.3800e-01	11.0660	5.078996	0.000897	8.971161	3.039512	0.072817
 278	1.3850e-01	11.1382	5.552308	0.001166	11.662509	3.951365	0.094662
 279	1.3900e-01	11.1590	5.261039	-0.000718	-7.176929	-2.431609	-0.058254
 280	1.3950e-01	11.1895	5.188222	-0.000179	-1.794232	-0.607902	-0.014563
 281	1.4000e-01	11.2409	5.261039	0.000179	1.794232	0.607902	0.014563
 282	1.4050e-01	11.2970	5.479491	0.000538	5.382696	1.823707	0.043690
 283	1.4100e-01	11.3259	5.770759	0.000718	7.176929	2.431609	0.058254
 284	1.4150e-01	11.3419	5.661534	-0.000269	-2.691348	-0.911853	-0.021845
 285	1.4200e-01	11.3820	5.661534	0.000000	0.000000	0.000000	0.000000
 286	1.4250e-01	11.4526	5.879985	0.000538	5.382696	1.823707	0.043690
 287	1.4300e-01	11.4911	5.952802	0.000179	1.794232	0.607902	0.014563
 288	1.4350e-01	11.5296	6.025619	0.000179	1.794232	0.607902	0.014563
 289	1.4400e-01	11.5777	6.498931	0.001166	11.662509	3.951365	0.094662
 290	1.4450e-01	11.5874	6.389705	-0.000269	-2.691348	-0.911853	-0.021845
 291	1.4500e-01	11.6307	6.571748	0.000449	4.485580	1.519756	0.036409
 292	1.4550e-01	11.6548	6.316888	-0.000628	-6.279813	-2.127658	-0.050972
 293	1.4600e-01	11.7141	6.316888	0.000000	0.000000	0.000000	0.000000
 294	1.4650e-01	11.7494	6.535340	0.000538	5.382696	1.823707	0.043690
 295	1.4700e-01	11.7975	6.535340	0.000000	0.000000	0.000000	0.000000
 296	1.4750e-01	11.8441	6.571748	0.000090	0.897116	0.303951	0.007282
 297	1.4800e-01	11.8842	6.753791	0.000449	4.485580	1.519756	0.036409
 298	1.4850e-01	11.9563	7.008651	0.000628	6.279813	2.127658	0.050972
 299	1.4900e-01	11.9515	6.935834	0.000179	1.794232	0.607902	-0.014563
 300	1.4950e-01	11.9692	7.154285	0.000538	5.382696	1.823707	0.043690
 301	1.5000e-01	12.0205	7.299920	0.000359	3.588464	1.215805	0.029127
 302	1.5050e-01	12.0382	6.972242	-0.000807	-8.074045	-2.735560	-0.065535
 303	1.5100e-01	12.1360	7.736823	0.001884	18.839438	6.382974	0.152916
 304	1.5150e-01	12.1649	7.336328	-0.000987	-9.868277	-3.343463	-0.080099
 305	1.5200e-01	12.1858	7.227103	-0.000269	-2.691348	-0.911853	-0.021845
 306	1.5250e-01	12.2419	7.700414	0.001166	11.662509	3.951365	0.094662
 307	1.5300e-01	12.2852	7.372737	-0.000807	-8.074045	-2.735560	-0.065535
 308	1.5350e-01	12.3189	8.100908	0.001794	17.942322	6.079023	0.145634
 309	1.5400e-01	12.3574	7.518371	-0.001435	-14.353857	-4.863218	-0.116507
 310	1.5450e-01	12.4039	8.100908	0.001435	14.353857	4.863218	0.116507
 311	1.5500e-01	12.4360	7.955274	-0.000359	-3.588464	-1.215805	-0.029127
 312	1.5550e-01	12.4697	8.282951	0.000807	8.074045	2.735560	0.065535
 313	1.5600e-01	12.5130	8.028091	-0.000628	-6.279813	-2.127658	-0.050972
 314	1.5650e-01	12.5900	8.392177	0.000897	8.971161	3.039512	0.072817
 315	1.5700e-01	12.5964	8.537811	0.000359	3.588464	1.215805	0.029127
 316	1.5750e-01	12.6574	8.574220	0.000090	0.897116	0.303951	0.007282
 317	1.5800e-01	12.6799	8.392177	-0.000449	-4.485580	-1.519756	-0.036409
 318	1.5850e-01	12.7087	8.719854	0.000807	8.074045	2.735560	0.065535
 319	1.5900e-01	12.7617	8.537811	-0.000449	-4.485580	-1.519756	-0.036409
 320	1.5950e-01	12.8050	8.974714	0.001077	10.765393	3.647414	0.087381
 321	1.6000e-01	12.8451	8.865488	-0.000269	-2.691348	-0.911853	-0.021845
 322	1.6050e-01	12.8708	8.901897	0.000090	0.897116	0.303951	0.007282
 323	1.6100e-01	12.9141	8.938306	0.000090	0.897116	0.303951	0.007282
 324	1.6150e-01	12.9221	9.083940	0.000359	3.588464	1.215805	0.029127
 325	1.6200e-01	13.0055	9.193166	0.000269	2.691348	0.911853	0.021845
 326	1.6250e-01	13.0376	9.630069	0.001077	10.765393	3.647414	0.087381
 327	1.6300e-01	13.0905	9.302391	-0.000807	-8.074045	-2.735560	-0.065535
 328	1.6350e-01	13.1339	9.848520	0.001346	13.456741	4.559267	0.109226
 329	1.6400e-01	13.1547	9.338800	-0.001256	-12.559625	-4.255316	-0.101944
 330	1.6450e-01	13.1932	10.103380	0.001884	18.839438	6.382974	0.152916
 331	1.6500e-01	13.2429	9.666477	-0.001077	-10.765393	-3.647414	-0.087381
 332	1.6550e-01	13.2830	9.557251	-0.000269	-2.691348	-0.911853	-0.021845
 333	1.6600e-01	13.3199	10.103380	0.001346	13.456741	4.559267	0.109226
 334	1.6650e-01	13.3617	10.139789	0.000090	0.897116	0.303951	0.007282
 335	1.6700e-01	13.4050	10.358240	0.000538	5.382696	1.823707	0.043690
 336	1.6750e-01	13.4210	10.249014	-0.000269	-2.691348	-0.911853	-0.021845
 337	1.6800e-01	13.4820	10.103380	-0.000359	-3.588464	-1.215805	-0.029127
 338	1.6850e-01	13.4948	10.394649	0.000718	7.176929	2.431609	0.058254
 339	1.6900e-01	13.5606	10.540283	0.000359	3.588464	1.215805	0.029127
 340	1.6950e-01	13.6215	10.649509	0.000269	2.691348	0.911853	0.021845
 341	1.7000e-01	13.6183	10.431057	0.000538	5.382696	1.823707	-0.043690
 342	1.7050e-01	13.6649	10.758734	0.000807	8.074045	2.735560	0.065535
 343	1.7100e-01	13.6953	10.940777	0.000449	4.485580	1.519756	0.036409
 344	1.7150e-01	13.7627	10.977186	0.000090	0.897116	0.303951	0.007282
 345	1.7200e-01	13.8076	11.195637	0.000538	5.382696	1.823707	0.043690
 346	1.7250e-01	13.8461	11.232046	0.000090	0.897116	0.303951	0.007282
 347	1.7300e-01	13.8686	11.159229	-0.000179	-1.794232	-0.607902	-0.014563
 348	1.7350e-01	13.9167	11.596132	0.001077	10.765393	3.647414	0.087381
 349	1.7400e-01	13.9600	11.450497	-0.000359	-3.588464	-1.215805	-0.029127
 350	1.7450e-01	13.9985	11.232046	-0.000538	-5.382696	-1.823707	-0.043690
 351	1.7500e-01	14.0451	11.559723	0.000807	8.074045	2.735560	0.065535
 352	1.7550e-01	14.0804	11.705357	0.000359	3.588464	1.215805	0.029127
 353	1.7600e-01	14.1269	11.632540	-0.000179	-1.794232	-0.607902	-0.014563
 354	1.7650e-01	14.1558	11.632540	0.000000	0.000000	0.000000	0.000000
 355	1.7700e-01	14.1782	12.033035	0.000987	9.868277	3.343463	0.080099
 356	1.7750e-01	14.2328	11.996626	-0.000090	-0.897116	-0.303951	-0.007282
 357	1.7800e-01	14.2697	12.215078	0.000538	5.382696	1.823707	0.043690
 358	1.7850e-01	14.3370	12.033035	-0.000449	-4.485580	-1.519756	-0.036409
 359	1.7900e-01	14.3531	11.960218	-0.000179	-1.794232	-0.607902	-0.014563
 360	1.7950e-01	14.4269	12.178669	0.000538	5.382696	1.823707	0.043690
 361	1.8000e-01	14.4317	12.724798	0.001346	13.456741	4.559267	0.109226
 362	1.8050e-01	14.4830	12.287895	-0.001077	-10.765393	-3.647414	-0.087381
 363	1.8100e-01	14.5231	12.761206	0.001166	11.662509	3.951365	0.094662
 364	1.8150e-01	14.5456	12.033035	-0.001794	-17.942322	-6.079023	-0.145634
 365	1.8200e-01	14.5712	12.688389	0.001615	16.148089	5.471121	0.131071
 366	1.8250e-01	14.6531	12.615572	-0.000179	-1.794232	-0.607902	-0.014563
 367	1.8300e-01	14.6675	12.761206	0.000359	3.588464	1.215805	0.029127
 368	1.8350e-01	14.7060	12.906841	0.000359	3.588464	1.215805	0.029127
 369	1.8400e-01	14.7461	12.761206	-0.000359	-3.588464	-1.215805	-0.029127
 370	1.8450e-01	14.7846	13.343743	0.001435	14.353857	4.863218	0.116507
 371	1.8500e-01	14.8408	13.234518	-0.000269	-2.691348	-0.911853	-0.021845
 372	1.8550e-01	14.8648	13.343743	0.000269	2.691348	0.911853	0.021845
 373	1.8600e-01	14.9354	13.416561	0.000179	1.794232	0.607902	0.014563
 374	1.8650e-01	14.9771	13.052475	-0.000897	-8.971161	-3.039512	-0.072817
 375	1.8700e-01	14.9996	13.489378	0.001077	10.765393	3.647414	0.087381
 376	1.8750e-01	15.0220	13.671421	0.000449	4.485580	1.519756	0.036409
 377	1.8800e-01	15.0734	13.562195	-0.000269	-2.691348	-0.911853	-0.021845
 378	1.8850e-01	15.1103	13.707829	0.000359	3.588464	1.215805	0.029127
 379	1.8900e-01	15.1600	13.962689	0.000628	6.279813	2.127658	0.050972
 380	1.8950e-01	15.1712	13.853464	-0.000269	-2.691348	-0.911853	-0.021845
 381	1.9000e-01	15.2258	14.108324	0.000628	6.279813	2.127658	0.050972
 382	1.9050e-01	15.2835	14.181141	0.000179	1.794232	0.607902	0.014563
 383	1.9100e-01	15.3076	14.363184	0.000449	4.485580	1.519756	0.036409
 384	1.9150e-01	15.3782	14.326775	-0.000090	-0.897116	-0.303951	-0.007282
 385	1.9200e-01	15.3846	14.108324	-0.000538	-5.382696	-1.823707	-0.043690
 386	1.9250e-01	15.4439	14.181141	0.000179	1.794232	0.607902	0.014563
 387	1.9300e-01	15.4696	14.472409	0.000718	7.176929	2.431609	0.058254
 388	1.9350e-01	15.5129	14.618044	0.000359	3.588464	1.215805	0.029127
 389	1.9400e-01	15.5595	14.618044	0.000000	0.000000	0.000000	0.000000
 390	1.9450e-01	15.6012	14.472409	-0.000359	-3.588464	-1.215805	-0.029127
 391	1.9500e-01	15.6188	14.727269	0.000628	6.279813	2.127658	0.050972
 392	1.9550e-01	15.6942	14.836495	0.000269	2.691348	0.911853	0.021845
 393	1.9600e-01	15.7199	14.872904	0.000090	0.897116	0.303951	0.007282
 394	1.9650e-01	15.7536	15.127764	0.000628	6.279813	2.127658	0.050972
 395	1.9700e-01	15.8097	15.018538	-0.000269	-2.691348	-0.911853	-0.021845
 396	1.9750e-01	15.8322	15.054947	0.000090	0.897116	0.303951	0.007282
 397	1.9800e-01	15.8627	15.054947	0.000000	0.000000	0.000000	0.000000
 398	1.9850e-01	15.9172	15.273398	0.000538	5.382696	1.823707	0.043690
 399	1.9900e-01	15.9669	15.236989	-0.000090	-0.897116	-0.303951	-0.007282
 400	1.9950e-01	15.9990	15.382624	0.000359	3.588464	1.215805	0.029127
 401	2.0000e-01	16.0359	15.382624	0.000000	0.000000	0.000000	0.000000
 402	2.0050e-01	16.0840	15.637484	0.000628	6.279813	2.127658	0.050972
 403	2.0100e-01	16.1113	15.710301	0.000179	1.794232	0.607902	0.014563
 404	2.0150e-01	16.1626	15.673892	-0.000090	-0.897116	-0.303951	-0.007282
 405	2.0200e-01	16.1626	16.183612	-0.001256	-12.559625	-4.255316	0.101944
 406	2.0250e-01	16.2348	16.037978	-0.000359	-3.588464	-1.215805	-0.029127
 407	2.0300e-01	16.2798	16.147204	0.000269	2.691348	0.911853	0.021845
 408	2.0350e-01	16.3070	16.147204	0.000000	0.000000	0.000000	0.000000
 409	2.0400e-01	16.3503	16.183612	0.000090	0.897116	0.303951	0.007282
 410	2.0450e-01	16.4065	16.584107	0.000987	9.868277	3.343463	0.080099
 411	2.0500e-01	16.4514	16.220021	-0.000897	-8.971161	-3.039512	-0.072817
 412	2.0550e-01	16.5011	16.438472	0.000538	5.382696	1.823707	0.043690
 413	2.0600e-01	16.5220	16.365655	-0.000179	-1.794232	-0.607902	-0.014563
 414	2.0650e-01	16.5701	16.875375	0.001256	12.559625	4.255316	0.101944
 415	2.0700e-01	16.5942	16.875375	0.000000	0.000000	0.000000	0.000000
 416	2.0750e-01	16.6182	16.474881	-0.000987	-9.868277	-3.343463	-0.080099
 417	2.0800e-01	16.6969	16.693333	0.000538	5.382696	1.823707	0.043690
 418	2.0850e-01	16.7081	17.166644	0.001166	11.662509	3.951365	0.094662
 419	2.0900e-01	16.7530	17.093827	-0.000179	-1.794232	-0.607902	-0.014563
 420	2.0950e-01	16.7819	17.093827	0.000000	0.000000	0.000000	0.000000
 421	2.1000e-01	16.8316	17.239461	0.000359	3.588464	1.215805	0.029127
 422	2.1050e-01	16.8701	16.911784	-0.000807	-8.074045	-2.735560	-0.065535
 423	2.1100e-01	16.9150	17.093827	0.000449	4.485580	1.519756	0.036409
 424	2.1150e-01	16.9696	17.239461	0.000359	3.588464	1.215805	0.029127
 425	2.1200e-01	16.9792	17.312278	0.000179	1.794232	0.607902	0.014563
 426	2.1250e-01	17.0514	17.603547	0.000718	7.176929	2.431609	0.058254
 427	2.1300e-01	17.0819	17.385096	-0.000538	-5.382696	-1.823707	-0.043690
 428	2.1350e-01	17.1156	17.567138	0.000449	4.485580	1.519756	0.036409
 429	2.1400e-01	17.1509	17.676364	0.000269	2.691348	0.911853	0.021845
 430	2.1450e-01	17.1990	17.821998	0.000359	3.588464	1.215805	0.029127
 431	2.1500e-01	17.2198	17.821998	0.000000	0.000000	0.000000	0.000000
 432	2.1550e-01	17.2824	17.712773	-0.000269	-2.691348	-0.911853	-0.021845
 433	2.1600e-01	17.3065	17.931224	0.000538	5.382696	1.823707	0.043690
 434	2.1650e-01	17.3674	18.004041	0.000179	1.794232	0.607902	0.014563
 435	2.1700e-01	17.3947	18.040450	0.000090	0.897116	0.303951	0.007282
 436	2.1750e-01	17.4492	18.076858	0.000090	0.897116	0.303951	0.007282
 437	2.1800e-01	17.5054	18.149676	0.000179	1.794232	0.607902	0.014563
 438	2.1850e-01	17.5166	18.440944	0.000718	7.176929	2.431609	0.058254
 439	2.1900e-01	17.5760	18.368127	-0.000179	-1.794232	-0.607902	-0.014563
 440	2.1950e-01	17.6049	18.513761	0.000359	3.588464	1.215805	0.029127
 441	2.2000e-01	17.6305	18.404536	-0.000269	-2.691348	-0.911853	-0.021845
 442	2.2050e-01	17.6754	18.550170	0.000359	3.588464	1.215805	0.029127
 443	2.2100e-01	17.7220	18.877847	0.000807	8.074045	2.735560	0.065535
 444	2.2150e-01	17.7733	18.914256	0.000090	0.897116	0.303951	0.007282
 445	2.2200e-01	17.7813	19.059890	0.000359	3.588464	1.215805	0.029127
 446	2.2250e-01	17.8583	19.096299	0.000090	0.897116	0.303951	0.007282
 447	2.2300e-01	17.8760	18.950664	-0.000359	-3.588464	-1.215805	-0.029127
 448	2.2350e-01	17.9321	19.205524	0.000628	6.279813	2.127658	0.050972
 449	2.2400e-01	17.9754	19.351159	0.000359	3.588464	1.215805	0.029127
 450	2.2450e-01	17.9786	19.460384	0.000269	2.691348	0.911853	0.021845
 451	2.2500e-01	18.0348	19.278342	-0.000449	-4.485580	-1.519756	-0.036409
 452	2.2550e-01	18.0845	19.387567	0.000269	2.691348	0.911853	0.021845
 453	2.2600e-01	18.1198	19.715244	0.000807	8.074045	2.735560	0.065535
 454	2.2650e-01	18.1519	19.642427	-0.000179	-1.794232	-0.607902	-0.014563
 455	2.2700e-01	18.2113	19.715244	0.000179	1.794232	0.607902	0.014563
 456	2.2750e-01	18.2289	19.860879	0.000359	3.588464	1.215805	0.029127
 457	2.2800e-01	18.2834	19.606019	-0.000628	-6.279813	-2.127658	-0.050972
 458	2.2850e-01	18.3155	19.751653	0.000359	3.588464	1.215805	0.029127
 459	2.2900e-01	18.3460	20.152147	0.000987	9.868277	3.343463	0.080099
 460	2.2950e-01	18.3893	20.006513	-0.000359	-3.588464	-1.215805	-0.029127
 461	2.3000e-01	18.4503	20.042922	0.000090	0.897116	0.303951	0.007282
 462	2.3050e-01	18.5193	20.407007	0.000897	8.971161	3.039512	0.072817
 463	2.3100e-01	18.4952	20.370599	0.000090	0.897116	0.303951	-0.007282
 464	2.3150e-01	18.5578	20.152147	-0.000538	-5.382696	-1.823707	-0.043690
 465	2.3200e-01	18.6011	20.334190	0.000449	4.485580	1.519756	0.036409
 466	2.3250e-01	18.6139	20.516233	0.000449	4.485580	1.519756	0.036409
 467	2.3300e-01	18.6588	20.479825	-0.000090	-0.897116	-0.303951	-0.007282
 468	2.3350e-01	18.7102	20.552642	0.000179	1.794232	0.607902	0.014563
 469	2.3400e-01	18.7294	20.734685	0.000449	4.485580	1.519756	0.036409
 470	2.3450e-01	18.7856	20.989545	0.000628	6.279813	2.127658	0.050972
 471	2.3500e-01	18.8417	21.098770	0.000269	2.691348	0.911853	0.021845
 472	2.3550e-01	18.8866	20.953136	-0.000359	-3.588464	-1.215805	-0.029127
 473	2.3600e-01	18.9027	21.098770	0.000359	3.588464	1.215805	0.029127
 474	2.3650e-01	18.9428	21.390039	0.000718	7.176929	2.431609	0.058254
 475	2.3700e-01	18.9989	21.135179	-0.000628	-6.279813	-2.127658	-0.050972
 476	2.3750e-01	19.0455	21.390039	0.000628	6.279813	2.127658	0.050972
 477	2.3800e-01	19.0759	21.244405	-0.000359	-3.588464	-1.215805	-0.029127
 478	2.3850e-01	19.1016	21.353630	0.000269	2.691348	0.911853	0.021845
 479	2.3900e-01	19.1545	21.790533	0.001077	10.765393	3.647414	0.087381
 480	2.3950e-01	19.1674	21.462856	-0.000807	-8.074045	-2.735560	-0.065535
 481	2.4000e-01	19.2203	21.317222	-0.000359	-3.588464	-1.215805	-0.029127
 482	2.4050e-01	19.2716	21.826942	0.001256	12.559625	4.255316	0.101944
 483	2.4100e-01	19.3118	21.644899	-0.000449	-4.485580	-1.519756	-0.036409
 484	2.4150e-01	19.3631	21.681308	0.000090	0.897116	0.303951	0.007282
 485	2.4200e-01	19.4080	22.045393	0.000897	8.971161	3.039512	0.072817
 486	2.4250e-01	19.3823	22.191028	-0.000359	-3.588464	-1.215805	0.029127
 487	2.4300e-01	19.4818	22.008985	-0.000449	-4.485580	-1.519756	-0.036409
 488	2.4350e-01	19.5171	22.081802	0.000179	1.794232	0.607902	0.014563
 489	2.4400e-01	19.5508	22.191028	0.000269	2.691348	0.911853	0.021845
 490	2.4450e-01	19.5909	22.263845	0.000179	1.794232	0.607902	0.014563
 491	2.4500e-01	19.6342	22.300253	0.000090	0.897116	0.303951	0.007282
 492	2.4550e-01	19.6807	22.191028	-0.000269	-2.691348	-0.911853	-0.021845
 493	2.4600e-01	19.7321	22.518705	0.000807	8.074045	2.735560	0.065535
 494	2.4650e-01	19.7369	22.627931	0.000269	2.691348	0.911853	0.021845
 495	2.4700e-01	19.7978	22.664339	0.000090	0.897116	0.303951	0.007282
 496	2.4750e-01	19.8315	22.664339	0.000000	0.000000	0.000000	0.000000
 497	2.4800e-01	19.8668	22.773565	0.000269	2.691348	0.911853	0.021845
 498	2.4850e-01	19.9037	22.700748	-0.000179	-1.794232	-0.607902	-0.014563
 499	2.4900e-01	19.9551	22.992016	0.000718	7.176929	2.431609	0.058254
 500	2.4950e-01	19.9775	22.882791	-0.000269	-2.691348	-0.911853	-0.021845
 501	2.5000e-01	20.0272	23.064834	0.000449	4.485580	1.519756	0.036409
 502	2.5050e-01	19.9791	22.773565	0.000718	7.176929	2.431609	-0.058254
 503	2.5100e-01	19.9230	22.882791	-0.000269	-2.691348	-0.911853	0.021845
 504	2.5150e-01	19.8973	23.210468	-0.000807	-8.074045	-2.735560	0.065535
 505	2.5200e-01	19.8508	22.627931	0.001435	14.353857	4.863218	-0.116507
 506	2.5250e-01	19.8187	22.773565	-0.000359	-3.588464	-1.215805	0.029127
 507	2.5300e-01	19.7802	22.737156	0.000090	0.897116	0.303951	-0.007282
 508	2.5350e-01	19.7337	22.627931	0.000269	2.691348	0.911853	-0.021845
 509	2.5400e-01	19.6839	22.555113	0.000179	1.794232	0.607902	-0.014563
 510	2.5450e-01	19.6583	22.300253	0.000628	6.279813	2.127658	-0.050972
 511	2.5500e-01	19.6230	22.664339	-0.000897	-8.971161	-3.039512	0.072817
 512	2.5550e-01	19.5781	22.591522	0.000179	1.794232	0.607902	-0.014563
 513	2.5600e-01	19.5251	22.409479	0.000449	4.485580	1.519756	-0.036409
 514	2.5650e-01	19.4930	22.191028	0.000538	5.382696	1.823707	-0.043690
 515	2.5700e-01	19.4626	21.754125	0.001077	10.765393	3.647414	-0.087381
 516	2.5750e-01	19.4112	22.263845	-0.001256	-12.559625	-4.255316	0.101944
 517	2.5800e-01	19.3904	22.118211	0.000359	3.588464	1.215805	-0.029127
 518	2.5850e-01	19.3294	21.572082	0.001346	13.456741	4.559267	-0.109226
 519	2.5900e-01	19.2749	22.118211	-0.001346	-13.456741	-4.559267	0.109226
 520	2.5950e-01	19.2524	21.717716	0.000987	9.868277	3.343463	-0.080099
 521	2.6000e-01	19.2299	21.790533	-0.000179	-1.794232	-0.607902	0.014563
 522	2.6050e-01	19.1577	21.863350	-0.000179	-1.794232	-0.607902	0.014563
 523	2.6100e-01	19.1337	21.717716	0.000359	3.588464	1.215805	-0.029127
 524	2.6150e-01	19.1064	21.390039	0.000807	8.074045	2.735560	-0.065535
 525	2.6200e-01	19.0631	21.754125	-0.000897	-8.971161	-3.039512	0.072817
 526	2.6250e-01	19.0037	21.499265	0.000628	6.279813	2.127658	-0.050972
 527	2.6300e-01	18.9701	21.681308	-0.000449	-4.485580	-1.519756	0.036409
 528	2.6350e-01	18.9332	21.280813	0.000987	9.868277	3.343463	-0.080099
 529	2.6400e-01	18.8914	21.244405	0.000090	0.897116	0.303951	-0.007282
 530	2.6450e-01	18.8850	21.280813	-0.000090	-0.897116	-0.303951	0.007282
 531	2.6500e-01	18.8112	20.953136	0.000807	8.074045	2.735560	-0.065535
 532	2.6550e-01	18.7711	21.535673	-0.001435	-14.353857	-4.863218	0.116507
 533	2.6600e-01	18.7374	20.989545	0.001346	13.456741	4.559267	-0.109226
 534	2.6650e-01	18.6941	21.098770	-0.000269	-2.691348	-0.911853	0.021845
 535	2.6700e-01	18.6412	20.771093	0.000807	8.074045	2.735560	-0.065535
 536	2.6750e-01	18.6155	21.098770	-0.000807	-8.074045	-2.735560	0.065535
 537	2.6800e-01	18.5786	20.771093	0.000807	8.074045	2.735560	-0.065535
 538	2.6850e-01	18.5289	20.661867	0.000269	2.691348	0.911853	-0.021845
 539	2.6900e-01	18.4920	20.552642	0.000269	2.691348	0.911853	-0.021845
 540	2.6950e-01	18.4711	20.552642	-0.000000	-0.000000	-0.000000	0.000000
 541	2.7000e-01	18.4150	20.370599	0.000449	4.485580	1.519756	-0.036409
 542	2.7050e-01	18.3781	20.407007	-0.000090	-0.897116	-0.303951	0.007282
 543	2.7100e-01	18.3235	20.479825	-0.000179	-1.794232	-0.607902	0.014563
 544	2.7150e-01	18.2802	20.188556	0.000718	7.176929	2.431609	-0.058254
 545	2.7200e-01	18.2834	20.297782	0.000269	2.691348	0.911853	0.021845
 546	2.7250e-01	18.2161	20.224965	0.000179	1.794232	0.607902	-0.014563
 547	2.7300e-01	18.1824	19.897287	0.000807	8.074045	2.735560	-0.065535
 548	2.7350e-01	18.1487	20.152147	-0.000628	-6.279813	-2.127658	0.050972
 549	2.7400e-01	18.0957	19.460384	0.001705	17.045206	5.775072	-0.138353
 550	2.7450e-01	18.0268	20.115739	-0.001615	-16.148089	-5.471121	0.131071
 551	2.7500e-01	18.0107	19.241933	0.002153	21.530786	7.294828	-0.174761
 552	2.7550e-01	17.9883	19.387567	-0.000359	-3.588464	-1.215805	0.029127
 553	2.7600e-01	17.9241	19.751653	-0.000897	-8.971161	-3.039512	0.072817
 554	2.7650e-01	17.8904	19.715244	0.000090	0.897116	0.303951	-0.007282
 555	2.7700e-01	17.8599	19.278342	0.001077	10.765393	3.647414	-0.087381
 556	2.7750e-01	17.8182	19.132707	0.000359	3.588464	1.215805	-0.029127
 557	2.7800e-01	17.7701	19.897287	-0.001884	-18.839438	-6.382974	0.152916
 558	2.7850e-01	17.7412	19.241933	0.001615	16.148089	5.471121	-0.131071
 559	2.7900e-01	17.7220	19.059890	0.000449	4.485580	1.519756	-0.036409
 560	2.7950e-01	17.6594	19.496793	-0.001077	-10.765393	-3.647414	0.087381
 561	2.8000e-01	17.6177	19.169116	0.000807	8.074045	2.735560	-0.065535
 562	2.8050e-01	17.5647	18.805030	0.000897	8.971161	3.039512	-0.072817
 563	2.8100e-01	17.5230	18.950664	-0.000359	-3.588464	-1.215805	0.029127
 564	2.8150e-01	17.5278	18.950664	0.000000	0.000000	0.000000	0.000000
 565	2.8200e-01	17.4573	18.768621	0.000449	4.485580	1.519756	-0.036409
 566	2.8250e-01	17.4027	18.805030	-0.000090	-0.897116	-0.303951	0.007282
 567	2.8300e-01	17.4043	18.805030	0.000000	0.000000	0.000000	0.000000
 568	2.8350e-01	17.3385	18.768621	0.000090	0.897116	0.303951	-0.007282
 569	2.8400e-01	17.3065	18.440944	0.000807	8.074045	2.735560	-0.065535
 570	2.8450e-01	17.2567	18.841439	-0.000987	-9.868277	-3.343463	0.080099
 571	2.8500e-01	17.2343	18.258901	0.001435	14.353857	4.863218	-0.116507
 572	2.8550e-01	17.1733	18.222493	0.000090	0.897116	0.303951	-0.007282
 573	2.8600e-01	17.1316	18.404536	-0.000449	-4.485580	-1.519756	0.036409
 574	2.8650e-01	17.1124	18.550170	-0.000359	-3.588464	-1.215805	0.029127
 575	2.8700e-01	17.0755	18.186084	0.000897	8.971161	3.039512	-0.072817
 576	2.8750e-01	17.0402	18.222493	-0.000090	-0.897116	-0.303951	0.007282
 577	2.8800e-01	16.9648	17.967633	0.000628	6.279813	2.127658	-0.050972
 578	2.8850e-01	16.9327	17.821998	0.000359	3.588464	1.215805	-0.029127
 579	2.8900e-01	16.9247	17.821998	-0.000000	-0.000000	-0.000000	0.000000
 580	2.8950e-01	16.8653	17.676364	0.000359	3.588464	1.215805	-0.029127
 581	2.9000e-01	16.8075	17.712773	-0.000090	-0.897116	-0.303951	0.007282
 582	2.9050e-01	16.7690	17.603547	0.000269	2.691348	0.911853	-0.021845
 583	2.9100e-01	16.7370	17.821998	-0.000538	-5.382696	-1.823707	0.043690
 584	2.9150e-01	16.6856	17.275870	0.001346	13.456741	4.559267	-0.109226
 585	2.9200e-01	16.6680	17.421504	-0.000359	-3.588464	-1.215805	0.029127
 586	2.9250e-01	16.6263	17.166644	0.000628	6.279813	2.127658	-0.050972
 587	2.9300e-01	16.5926	17.203053	-0.000090	-0.897116	-0.303951	0.007282
 588	2.9350e-01	16.5268	16.984601	0.000538	5.382696	1.823707	-0.043690
 589	2.9400e-01	16.4851	17.166644	-0.000449	-4.485580	-1.519756	0.036409
 590	2.9450e-01	16.4209	16.802558	0.000897	8.971161	3.039512	-0.072817
 591	2.9500e-01	16.4306	16.948193	0.000359	3.588464	1.215805	0.029127
 592	2.9550e-01	16.3760	17.057418	-0.000269	-2.691348	-0.911853	0.021845
 593	2.9600e-01	16.3696	16.656924	0.000987	9.868277	3.343463	-0.080099
 594	2.9650e-01	16.2974	17.348687	-0.001705	-17.045206	-5.775072	0.138353
 595	2.9700e-01	16.2413	16.292838	0.002602	26.016366	8.814584	-0.211170
 596	2.9750e-01	16.2268	16.474881	-0.000449	-4.485580	-1.519756	0.036409
 597	2.9800e-01	16.1594	16.292838	0.000449	4.485580	1.519756	-0.036409
 598	2.9850e-01	16.1562	16.402064	-0.000269	-2.691348	-0.911853	0.021845
 599	2.9900e-01	16.0889	16.183612	0.000538	5.382696	1.823707	-0.043690
 600	2.9950e-01	16.0584	16.365655	-0.000449	-4.485580	-1.519756	0.036409
 601	3.0000e-01	16.0279	16.292838	0.000179	1.794232	0.607902	-0.014563
 602	3.0050e-01	16.0006	16.256430	0.000090	0.897116	0.303951	-0.007282
 603	3.0100e-01	15.9268	16.110795	0.000359	3.588464	1.215805	-0.029127
 604	3.0150e-01	15.9060	16.220021	-0.000269	-2.691348	-0.911853	0.021845
 605	3.0200e-01	15.8627	15.455441	0.001884	18.839438	6.382974	-0.152916
 606	3.0250e-01	15.8322	16.110795	-0.001615	-16.148089	-5.471121	0.131071
 607	3.0300e-01	15.7664	15.855935	0.000628	6.279813	2.127658	-0.050972
 608	3.0350e-01	15.7407	15.819527	0.000090	0.897116	0.303951	-0.007282
 609	3.0400e-01	15.7054	15.746710	0.000179	1.794232	0.607902	-0.014563
 610	3.0450e-01	15.6589	15.564667	0.000449	4.485580	1.519756	-0.036409
 611	3.0500e-01	15.6140	15.419032	0.000359	3.588464	1.215805	-0.029127
 612	3.0550e-01	15.5739	15.637484	-0.000538	-5.382696	-1.823707	0.043690
 613	3.0600e-01	15.5482	15.273398	0.000897	8.971161	3.039512	-0.072817
 614	3.0650e-01	15.5001	15.273398	-0.000000	-0.000000	-0.000000	0.000000
 615	3.0700e-01	15.4488	15.273398	-0.000000	-0.000000	-0.000000	0.000000
 616	3.0750e-01	15.3974	15.491849	-0.000538	-5.382696	-1.823707	0.043690
 617	3.0800e-01	15.3798	14.836495	0.001615	16.148089	5.471121	-0.131071
 618	3.0850e-01	15.3333	15.091355	-0.000628	-6.279813	-2.127658	0.050972
 619	3.0900e-01	15.2996	15.164172	-0.000179	-1.794232	-0.607902	0.014563
 620	3.0950e-01	15.2643	14.945721	0.000538	5.382696	1.823707	-0.043690
 621	3.1000e-01	15.2322	14.836495	0.000269	2.691348	0.911853	-0.021845
 622	3.1050e-01	15.1841	14.690861	0.000359	3.588464	1.215805	-0.029127
 623	3.1100e-01	15.1552	14.763678	-0.000179	-1.794232	-0.607902	0.014563
 624	3.1150e-01	15.1103	14.800087	-0.000090	-0.897116	-0.303951	0.007282
 625	3.1200e-01	15.0445	14.472409	0.000807	8.074045	2.735560	-0.065535
 626	3.1250e-01	15.0172	14.545226	-0.000179	-1.794232	-0.607902	0.014563
 627	3.1300e-01	14.9964	14.144732	0.000987	9.868277	3.343463	-0.080099
 628	3.1350e-01	14.9402	14.436001	-0.000718	-7.176929	-2.431609	0.058254
 629	3.1400e-01	14.8985	14.217549	0.000538	5.382696	1.823707	-0.043690
 630	3.1450e-01	14.8456	14.144732	0.000179	1.794232	0.607902	-0.014563
 631	3.1500e-01	14.7990	14.181141	-0.000090	-0.897116	-0.303951	0.007282
 632	3.1550e-01	14.7525	13.889872	0.000718	7.176929	2.431609	-0.058254
 633	3.1600e-01	14.7285	13.853464	0.000090	0.897116	0.303951	-0.007282
 634	3.1650e-01	14.6835	13.889872	-0.000090	-0.897116	-0.303951	0.007282
 635	3.1700e-01	14.6851	13.744238	-0.000359	-3.588464	-1.215805	-0.029127
 636	3.1750e-01	14.6162	13.707829	0.000090	0.897116	0.303951	-0.007282
 637	3.1800e-01	14.5745	13.489378	0.000538	5.382696	1.823707	-0.043690
 638	3.1850e-01	14.5504	13.416561	0.000179	1.794232	0.607902	-0.014563
 639	3.1900e-01	14.4718	13.817055	-0.000987	-9.868277	-3.343463	0.080099
 640	3.1950e-01	14.4686	13.307335	0.001256	12.559625	4.255316	-0.101944
 641	3.2000e-01	14.4108	13.016066	0.000718	7.176929	2.431609	-0.058254
 642	3.2050e-01	14.3771	13.161701	-0.000359	-3.588464	-1.215805	0.029127
 643	3.2100e-01	14.3210	13.125292	0.000090	0.897116	0.303951	-0.007282
 644	3.2150e-01	14.2921	12.688389	0.001077	10.765393	3.647414	-0.087381
 645	3.2200e-01	14.2745	13.052475	-0.000897	-8.971161	-3.039512	0.072817
 646	3.2250e-01	14.2087	13.198109	-0.000359	-3.588464	-1.215805	0.029127
 647	3.2300e-01	14.1558	12.579163	0.001525	15.250973	5.167170	-0.123789
 648	3.2350e-01	14.1574	12.724798	0.000359	3.588464	1.215805	0.029127
 649	3.2400e-01	14.0996	12.615572	0.000269	2.691348	0.911853	-0.021845
 650	3.2450e-01	14.0531	12.506346	0.000269	2.691348	0.911853	-0.021845
 651	3.2500e-01	14.0130	12.433529	0.000179	1.794232	0.607902	-0.014563
 652	3.2550e-01	13.9761	12.615572	-0.000449	-4.485580	-1.519756	0.036409
 653	3.2600e-01	13.9568	12.360712	0.000628	6.279813	2.127658	-0.050972
 654	3.2650e-01	13.8830	12.033035	0.000807	8.074045	2.735560	-0.065535
 655	3.2700e-01	13.8606	12.360712	-0.000807	-8.074045	-2.735560	0.065535
 656	3.2750e-01	13.8140	12.105852	0.000628	6.279813	2.127658	-0.050972
 657	3.2800e-01	13.7723	12.105852	-0.000000	-0.000000	-0.000000	0.000000
 658	3.2850e-01	13.7451	12.069443	0.000090	0.897116	0.303951	-0.007282
 659	3.2900e-01	13.6905	11.705357	0.000897	8.971161	3.039512	-0.072817
 660	3.2950e-01	13.6552	11.850992	-0.000359	-3.588464	-1.215805	0.029127
 661	3.3000e-01	13.6408	11.960218	-0.000269	-2.691348	-0.911853	0.021845
 662	3.3050e-01	13.5590	11.596132	0.000897	8.971161	3.039512	-0.072817
 663	3.3100e-01	13.5189	11.705357	-0.000269	-2.691348	-0.911853	0.021845
 664	3.3150e-01	13.4964	11.195637	0.001256	12.559625	4.255316	-0.101944
 665	3.3200e-01	13.4419	11.268455	-0.000179	-1.794232	-0.607902	0.014563
 666	3.3250e-01	13.4354	11.268455	-0.000000	-0.000000	-0.000000	0.000000
 667	3.3300e-01	13.3584	10.977186	0.000718	7.176929	2.431609	-0.058254
 668	3.3350e-01	13.3472	11.304863	-0.000807	-8.074045	-2.735560	0.065535
 669	3.3400e-01	13.2830	11.341272	-0.000090	-0.897116	-0.303951	0.007282
 670	3.3450e-01	13.2397	11.159229	0.000449	4.485580	1.519756	-0.036409
 671	3.3500e-01	13.2060	10.394649	0.001884	18.839438	6.382974	-0.152916
 672	3.3550e-01	13.2060	10.867960	-0.001166	-11.662509	-3.951365	0.094662
 673	3.3600e-01	13.1611	10.758734	0.000269	2.691348	0.911853	-0.021845
 674	3.3650e-01	13.0921	10.576692	0.000449	4.485580	1.519756	-0.036409
 675	3.3700e-01	13.0424	10.285423	0.000718	7.176929	2.431609	-0.058254
 676	3.3750e-01	13.0039	10.540283	-0.000628	-6.279813	-2.127658	0.050972
 677	3.3800e-01	12.9670	10.394649	0.000359	3.588464	1.215805	-0.029127
 678	3.3850e-01	12.9446	10.431057	-0.000090	-0.897116	-0.303951	0.007282
 679	3.3900e-01	12.9413	10.139789	0.000718	7.176929	2.431609	-0.058254
 680	3.3950e-01	12.8595	10.030563	0.000269	2.691348	0.911853	-0.021845
 681	3.4000e-01	12.8162	10.249014	-0.000538	-5.382696	-1.823707	0.043690
 682	3.4050e-01	12.7745	9.848520	0.000987	9.868277	3.343463	-0.080099
 683	3.4100e-01	12.7344	9.884929	-0.000090	-0.897116	-0.303951	0.007282
 684	3.4150e-01	12.6911	9.812111	0.000179	1.794232	0.607902	-0.014563
 685	3.4200e-01	12.6462	9.520843	0.000718	7.176929	2.431609	-0.058254
 686	3.4250e-01	12.6189	9.994154	-0.001166	-11.662509	-3.951365	0.094662
 687	3.4300e-01	12.5660	9.848520	0.000359	3.588464	1.215805	-0.029127
 688	3.4350e-01	12.5387	9.593660	0.000628	6.279813	2.127658	-0.050972
 689	3.4400e-01	12.4841	9.484434	0.000269	2.691348	0.911853	-0.021845
 690	3.4450e-01	12.4392	9.375209	0.000269	2.691348	0.911853	-0.021845
 691	3.4500e-01	12.3927	9.375209	-0.000000	-0.000000	-0.000000	0.000000
 692	3.4550e-01	12.3767	9.156757	0.000538	5.382696	1.823707	-0.043690
 693	3.4600e-01	12.3526	9.156757	-0.000000	-0.000000	-0.000000	0.000000
 694	3.4650e-01	12.3253	9.156757	-0.000000	-0.000000	-0.000000	0.000000
 695	3.4700e-01	12.2323	8.865488	0.000718	7.176929	2.431609	-0.058254
 696	3.4750e-01	12.2291	8.938306	-0.000179	-1.794232	-0.607902	0.014563
 697	3.4800e-01	12.1777	8.683446	0.000628	6.279813	2.127658	-0.050972
 698	3.4850e-01	12.1456	8.938306	-0.000628	-6.279813	-2.127658	0.050972
 699	3.4900e-01	12.1039	8.173726	0.001884	18.839438	6.382974	-0.152916
 700	3.4950e-01	12.0702	8.756263	-0.001435	-14.353857	-4.863218	0.116507
 701	3.5000e-01	12.0109	8.464994	0.000718	7.176929	2.431609	-0.058254
 702	3.5050e-01	11.9644	8.610628	-0.000359	-3.588464	-1.215805	0.029127
 703	3.5100e-01	11.9162	8.392177	0.000538	5.382696	1.823707	-0.043690
 704	3.5150e-01	11.9146	8.064500	0.000807	8.074045	2.735560	-0.065535
 705	3.5200e-01	11.8537	8.137317	-0.000179	-1.794232	-0.607902	0.014563
 706	3.5250e-01	11.8264	8.246543	-0.000269	-2.691348	-0.911853	0.021845
 707	3.5300e-01	11.7606	8.100908	0.000359	3.588464	1.215805	-0.029127
 708	3.5350e-01	11.7318	8.028091	0.000179	1.794232	0.607902	-0.014563
 709	3.5400e-01	11.7109	7.773231	0.000628	6.279813	2.127658	-0.050972
 710	3.5450e-01	11.6387	7.846048	-0.000179	-1.794232	-0.607902	0.014563
 711	3.5500e-01	11.6227	7.554780	0.000718	7.176929	2.431609	-0.058254
 712	3.5550e-01	11.5761	7.481963	0.000179	1.794232	0.607902	-0.014563
 713	3.5600e-01	11.5360	7.627597	-0.000359	-3.588464	-1.215805	0.029127
 714	3.5650e-01	11.4991	7.372737	0.000628	6.279813	2.127658	-0.050972
 715	3.5700e-01	11.4446	7.445554	-0.000179	-1.794232	-0.607902	0.014563
 716	3.5750e-01	11.4173	6.863017	0.001435	14.353857	4.863218	-0.116507
 717	3.5800e-01	11.3949	7.409145	-0.001346	-13.456741	-4.559267	0.109226
 718	3.5850e-01	11.3339	7.154285	0.000628	6.279813	2.127658	-0.050972
 719	3.5900e-01	11.3002	7.372737	-0.000538	-5.382696	-1.823707	0.043690
 720	3.5950e-01	11.2601	7.154285	0.000538	5.382696	1.823707	-0.043690
 721	3.6000e-01	11.2168	6.571748	0.001435	14.353857	4.863218	-0.116507
 722	3.6050e-01	11.1911	7.117877	-0.001346	-13.456741	-4.559267	0.109226
 723	3.6100e-01	11.1238	6.608157	0.001256	12.559625	4.255316	-0.101944
 724	3.6150e-01	11.1029	6.571748	0.000090	0.897116	0.303951	-0.007282
 725	3.6200e-01	11.0403	6.244071	0.000807	8.074045	2.735560	-0.065535
 726	3.6250e-01	11.0034	6.171254	0.000179	1.794232	0.607902	-0.014563
 727	3.6300e-01	10.9713	6.316888	-0.000359	-3.588464	-1.215805	0.029127
 728	3.6350e-01	10.9425	6.790200	-0.001166	-11.662509	-3.951365	0.094662
 729	3.6400e-01	10.9008	6.280480	0.001256	12.559625	4.255316	-0.101944
 730	3.6450e-01	10.8526	6.062028	0.000538	5.382696	1.823707	-0.043690
 731	3.6500e-01	10.8222	6.062028	-0.000000	-0.000000	-0.000000	0.000000
 732	3.6550e-01	10.7580	5.916394	0.000359	3.588464	1.215805	-0.029127
 733	3.6600e-01	10.7291	5.807168	0.000269	2.691348	0.911853	-0.021845
 734	3.6650e-01	10.7034	5.734351	0.000179	1.794232	0.607902	-0.014563
 735	3.6700e-01	10.6698	5.952802	-0.000538	-5.382696	-1.823707	0.043690
 736	3.6750e-01	10.6168	5.261039	0.001705	17.045206	5.775072	-0.138353
 737	3.6800e-01	10.5687	5.588717	-0.000807	-8.074045	-2.735560	0.065535
 738	3.6850e-01	10.5414	5.333857	0.000628	6.279813	2.127658	-0.050972
 739	3.6900e-01	10.4917	5.006179	0.000807	8.074045	2.735560	-0.065535
 740	3.6950e-01	10.4580	5.224631	-0.000538	-5.382696	-1.823707	0.043690
 741	3.7000e-01	10.3970	4.678502	0.001346	13.456741	4.559267	-0.109226
 742	3.7050e-01	10.3585	5.078996	-0.000987	-9.868277	-3.343463	0.080099
 743	3.7100e-01	10.3393	4.824136	0.000628	6.279813	2.127658	-0.050972
 744	3.7150e-01	10.2960	4.824136	-0.000000	-0.000000	-0.000000	0.000000
 745	3.7200e-01	10.2655	5.006179	-0.000449	-4.485580	-1.519756	0.036409
 746	3.7250e-01	10.2559	4.460051	0.001346	13.456741	4.559267	-0.109226
 747	3.7300e-01	10.1500	4.678502	-0.000538	-5.382696	-1.823707	0.043690
 748	3.7350e-01	10.1500	4.460051	0.000538	5.382696	1.823707	-0.043690
 749	3.7400e-01	10.1388	4.423642	0.000090	0.897116	0.303951	-0.007282
 750	3.7450e-01	10.0730	4.387234	0.000090	0.897116	0.303951	-0.007282
 751	3.7500e-01	10.0168	4.350825	0.000090	0.897116	0.303951	-0.007282
 752	3.7550e-01	9.9703	4.278008	0.000179	1.794232	0.607902	-0.014563
 753	3.7600e-01	9.9511	3.986739	0.000718	7.176929	2.431609	-0.058254
 754	3.7650e-01	9.8965	3.659062	0.000807	8.074045	2.735560	-0.065535
 755	3.7700e-01	9.8612	3.913922	-0.000628	-6.279813	-2.127658	0.050972
 756	3.7750e-01	9.8275	4.132373	-0.000538	-5.382696	-1.823707	0.043690
 757	3.7800e-01	9.8051	3.331385	0.001974	19.736554	6.686925	-0.160198
 758	3.7850e-01	9.7393	4.132373	-0.001974	-19.736554	-6.686925	0.160198
 759	3.7900e-01	9.7217	3.622653	0.001256	12.559625	4.255316	-0.101944
 760	3.7950e-01	9.6302	3.477019	0.000359	3.588464	1.215805	-0.029127
 761	3.8000e-01	9.6238	3.185750	0.000718	7.176929	2.431609	-0.058254
 762	3.8050e-01	9.5837	3.440611	-0.000628	-6.279813	-2.127658	0.050972
 763	3.8100e-01	9.5660	3.258568	0.000449	4.485580	1.519756	-0.036409
 764	3.8150e-01	9.4955	3.185750	0.000179	1.794232	0.607902	-0.014563
 765	3.8200e-01	9.4537	3.076525	0.000269	2.691348	0.911853	-0.021845
 766	3.8250e-01	9.4473	3.185750	-0.000269	-2.691348	-0.911853	0.021845
 767	3.8300e-01	9.3783	3.185750	-0.000000	-0.000000	-0.000000	0.000000
 768	3.8350e-01	9.3414	2.821665	0.000897	8.971161	3.039512	-0.072817
 769	3.8400e-01	9.3078	2.493988	0.000807	8.074045	2.735560	-0.065535
 770	3.8450e-01	9.2612	2.639622	-0.000359	-3.588464	-1.215805	0.029127
 771	3.8500e-01	9.2243	2.348353	0.000718	7.176929	2.431609	-0.058254
 772	3.8550e-01	9.1666	2.530396	-0.000449	-4.485580	-1.519756	0.036409
 773	3.8600e-01	9.1409	2.275536	0.000628	6.279813	2.127658	-0.050972
 774	3.8650e-01	9.0687	2.457579	-0.000449	-4.485580	-1.519756	0.036409
 775	3.8700e-01	9.0671	2.129902	0.000807	8.074045	2.735560	-0.065535
 776	3.8750e-01	9.0094	1.802225	0.000807	8.074045	2.735560	-0.065535
 777	3.8800e-01	8.9484	1.911450	-0.000269	-2.691348	-0.911853	0.021845
 778	3.8850e-01	8.9420	1.984267	-0.000179	-1.794232	-0.607902	0.014563
 779	3.8900e-01	8.8939	1.984267	-0.000000	-0.000000	-0.000000	0.000000
 780	3.8950e-01	8.8457	1.656590	0.000807	8.074045	2.735560	-0.065535
 781	3.9000e-01	8.8233	1.547365	0.000269	2.691348	0.911853	-0.021845
 782	3.9050e-01	8.7864	1.510956	0.000090	0.897116	0.303951	-0.007282
 783	3.9100e-01	8.7367	1.292504	0.000538	5.382696	1.823707	-0.043690
 784	3.9150e-01	8.6837	1.401730	-0.000269	-2.691348	-0.911853	0.021845
 785	3.9200e-01	8.6773	1.001236	0.000987	9.868277	3.343463	-0.080099
 786	3.9250e-01	8.6147	1.365322	-0.000897	-8.971161	-3.039512	0.072817
 787	3.9300e-01	8.5875	0.819193	0.001346	13.456741	4.559267	-0.109226
 788	3.9350e-01	8.5249	1.074053	-0.000628	-6.279813	-2.127658	0.050972
 789	3.9400e-01	8.5024	0.964827	0.000269	2.691348	0.911853	-0.021845
 790	3.9450e-01	8.4687	0.564333	0.000987	9.868277	3.343463	-0.080099
 791	3.9500e-01	8.4174	0.491516	0.000179	1.794232	0.607902	-0.014563
 792	3.9550e-01	8.3773	0.527924	-0.000090	-0.897116	-0.303951	0.007282
 793	3.9600e-01	8.3436	0.928419	-0.000987	-9.868277	-3.343463	0.080099
 794	3.9650e-01	8.3083	0.345881	0.001435	14.353857	4.863218	-0.116507
 795	3.9700e-01	8.2522	0.163839	0.000449	4.485580	1.519756	-0.036409
 796	3.9750e-01	8.2185	0.273064	-0.000269	-2.691348	-0.911853	0.021845
 797	3.9800e-01	8.1768	0.455107	-0.000449	-4.485580	-1.519756	0.036409
 798	3.9850e-01	8.1383	0.091021	0.000897	8.971161	3.039512	-0.072817
 799	3.9900e-01	8.0709	0.018204	0.000179	1.794232	0.607902	-0.014563
 800	3.9950e-01	8.0613	-0.163839	0.000449	4.485580	1.519756	-0.036409
 801	4.0000e-01	8.0228	-0.163839	-0.000000	-0.000000	-0.000000	0.000000
 802	4.0050e-01	7.9682	-0.455107	0.000718	7.176929	2.431609	-0.058254
 803	4.0100e-01	7.9474	-0.309473	-0.000359	-3.588464	-1.215805	0.029127
 804	4.0150e-01	7.8816	-0.600742	0.000718	7.176929	2.431609	-0.058254
 805	4.0200e-01	7.8607	-0.673559	0.000179	1.794232	0.607902	-0.014563
 806	4.0250e-01	7.8174	-0.637150	-0.000090	-0.897116	-0.303951	0.007282
 807	4.0300e-01	7.7581	-0.782784	0.000359	3.588464	1.215805	-0.029127
 808	4.0350e-01	7.7340	-1.001236	0.000538	5.382696	1.823707	-0.043690
 809	4.0400e-01	7.6955	-0.782784	-0.000538	-5.382696	-1.823707	0.043690
 810	4.0450e-01	7.6650	-1.001236	0.000538	5.382696	1.823707	-0.043690
 811	4.0500e-01	7.6057	-1.110462	0.000269	2.691348	0.911853	-0.021845
 812	4.0550e-01	7.5944	-1.037644	-0.000179	-1.794232	-0.607902	0.014563
 813	4.0600e-01	7.5415	-1.474547	0.001077	10.765393	3.647414	-0.087381
 814	4.0650e-01	7.4950	-1.365322	-0.000269	-2.691348	-0.911853	0.021845
 815	4.0700e-01	7.4661	-1.328913	-0.000090	-0.897116	-0.303951	0.007282
 816	4.0750e-01	7.4228	-1.765816	0.001077	10.765393	3.647414	-0.087381
 817	4.0800e-01	7.3682	-1.547365	-0.000538	-5.382696	-1.823707	0.043690
 818	4.0850e-01	7.3474	-1.947859	0.000987	9.868277	3.343463	-0.080099
 819	4.0900e-01	7.2912	-1.911450	-0.000090	-0.897116	-0.303951	0.007282
 820	4.0950e-01	7.2463	-1.692999	-0.000538	-5.382696	-1.823707	0.043690
 821	4.1000e-01	7.2174	-2.166310	0.001166	11.662509	3.951365	-0.094662
 822	4.1050e-01	7.2030	-2.202719	0.000090	0.897116	0.303951	-0.007282
 823	4.1100e-01	7.1420	-2.202719	-0.000000	-0.000000	-0.000000	0.000000
 824	4.1150e-01	7.0987	-2.384762	0.000449	4.485580	1.519756	-0.036409
 825	4.1200e-01	7.1003	-2.239127	0.000359	3.588464	1.215805	0.029127
 826	4.1250e-01	6.9880	-2.566805	0.000807	8.074045	2.735560	-0.065535
 827	4.1300e-01	7.0057	-2.421170	0.000359	3.588464	1.215805	0.029127
 828	4.1350e-01	6.9271	-2.603213	0.000449	4.485580	1.519756	-0.036409
 829	4.1400e-01	6.8998	-2.930890	0.000807	8.074045	2.735560	-0.065535
 830	4.1450e-01	6.8741	-2.858073	-0.000179	-1.794232	-0.607902	0.014563
 831	4.1500e-01	6.8036	-3.367793	0.001256	12.559625	4.255316	-0.101944
 832	4.1550e-01	6.7650	-2.748848	-0.001525	-15.250973	-5.167170	0.123789
 833	4.1600e-01	6.7265	-3.258568	0.001256	12.559625	4.255316	-0.101944
 834	4.1650e-01	6.7009	-3.076525	-0.000449	-4.485580	-1.519756	0.036409
 835	4.1700e-01	6.6528	-3.513428	0.001077	10.765393	3.647414	-0.087381
 836	4.1750e-01	6.6207	-3.659062	0.000359	3.588464	1.215805	-0.029127
 837	4.1800e-01	6.5565	-3.440611	-0.000538	-5.382696	-1.823707	0.043690
 838	4.1850e-01	6.5389	-4.059556	0.001525	15.250973	5.167170	-0.123789
 839	4.1900e-01	6.4955	-3.477019	-0.001435	-14.353857	-4.863218	0.116507
 840	4.1950e-01	6.4811	-3.768288	0.000718	7.176929	2.431609	-0.058254
 841	4.2000e-01	6.4185	-3.768288	-0.000000	-0.000000	-0.000000	0.000000
 842	4.2050e-01	6.3704	-3.877513	0.000269	2.691348	0.911853	-0.021845
 843	4.2100e-01	6.3367	-3.841105	-0.000090	-0.897116	-0.303951	0.007282
 844	4.2150e-01	6.3255	-4.605685	0.001884	18.839438	6.382974	-0.152916
 845	4.2200e-01	6.2613	-4.423642	-0.000449	-4.485580	-1.519756	0.036409
 846	4.2250e-01	6.2196	-4.714911	0.000718	7.176929	2.431609	-0.058254
 847	4.2300e-01	6.1988	-4.496459	-0.000538	-5.382696	-1.823707	0.043690
 848	4.2350e-01	6.1362	-4.423642	-0.000179	-1.794232	-0.607902	0.014563
 849	4.2400e-01	6.0736	-4.569276	0.000359	3.588464	1.215805	-0.029127
 850	4.2450e-01	6.0608	-4.933362	0.000897	8.971161	3.039512	-0.072817
 851	4.2500e-01	6.0095	-4.933362	-0.000000	-0.000000	-0.000000	0.000000
 852	4.2550e-01	5.9661	-4.860545	-0.000179	-1.794232	-0.607902	0.014563
 853	4.2600e-01	5.9421	-5.042588	0.000449	4.485580	1.519756	-0.036409
 854	4.2650e-01	5.9004	-5.297448	0.000628	6.279813	2.127658	-0.050972
 855	4.2700e-01	5.8795	-5.224631	-0.000179	-1.794232	-0.607902	0.014563
 856	4.2750e-01	5.8105	-5.333857	0.000269	2.691348	0.911853	-0.021845
 857	4.2800e-01	5.7720	-5.625125	0.000718	7.176929	2.431609	-0.058254
 858	4.2850e-01	5.7287	-5.515899	-0.000269	-2.691348	-0.911853	0.021845
 859	4.2900e-01	5.7159	-5.770759	0.000628	6.279813	2.127658	-0.050972
 860	4.2950e-01	5.6581	-5.734351	-0.000090	-0.897116	-0.303951	0.007282
 861	4.3000e-01	5.6148	-5.843577	0.000269	2.691348	0.911853	-0.021845
 862	4.3050e-01	5.6052	-5.807168	-0.000090	-0.897116	-0.303951	0.007282
 863	4.3100e-01	5.5186	-6.244071	0.001077	10.765393	3.647414	-0.087381
 864	4.3150e-01	5.4897	-6.134845	-0.000269	-2.691348	-0.911853	0.021845
 865	4.3200e-01	5.4560	-6.244071	0.000269	2.691348	0.911853	-0.021845
 866	4.3250e-01	5.3918	-6.462522	0.000538	5.382696	1.823707	-0.043690
 867	4.3300e-01	5.3694	-6.535340	0.000179	1.794232	0.607902	-0.014563
 868	4.3350e-01	5.3405	-6.571748	0.000090	0.897116	0.303951	-0.007282
 869	4.3400e-01	5.3405	-6.498931	-0.000179	-1.794232	-0.607902	0.014563
 870	4.3450e-01	5.2651	-6.717382	0.000538	5.382696	1.823707	-0.043690
 871	4.3500e-01	5.2122	-6.717382	-0.000000	-0.000000	-0.000000	0.000000
 872	4.3550e-01	5.1833	-7.081468	0.000897	8.971161	3.039512	-0.072817
 873	4.3600e-01	5.1384	-6.972242	-0.000269	-2.691348	-0.911853	0.021845
 874	4.3650e-01	5.0983	-7.227103	0.000628	6.279813	2.127658	-0.050972
 875	4.3700e-01	5.0678	-7.117877	-0.000269	-2.691348	-0.911853	0.021845
 876	4.3750e-01	5.0132	-7.409145	0.000718	7.176929	2.431609	-0.058254
 877	4.3800e-01	4.9683	-7.263511	-0.000359	-3.588464	-1.215805	0.029127
 878	4.3850e-01	4.9458	-7.736823	0.001166	11.662509	3.951365	-0.094662
 879	4.3900e-01	4.9202	-7.518371	-0.000538	-5.382696	-1.823707	0.043690
 880	4.3950e-01	4.8624	-7.991683	0.001166	11.662509	3.951365	-0.094662
 881	4.4000e-01	4.8047	-7.445554	-0.001346	-13.456741	-4.559267	0.109226
 882	4.4050e-01	4.7822	-8.028091	0.001435	14.353857	4.863218	-0.116507
 883	4.4100e-01	4.7213	-7.955274	-0.000179	-1.794232	-0.607902	0.014563
 884	4.4150e-01	4.6972	-8.464994	0.001256	12.559625	4.255316	-0.101944
 885	4.4200e-01	4.6523	-7.918865	-0.001346	-13.456741	-4.559267	0.109226
 886	4.4250e-01	4.6122	-8.319360	0.000987	9.868277	3.343463	-0.080099
 887	4.4300e-01	4.5833	-8.537811	0.000538	5.382696	1.823707	-0.043690
 888	4.4350e-01	4.5496	-8.392177	-0.000359	-3.588464	-1.215805	0.029127
 889	4.4400e-01	4.5047	-8.719854	0.000807	8.074045	2.735560	-0.065535
 890	4.4450e-01	4.4453	-8.938306	0.000538	5.382696	1.823707	-0.043690
 891	4.4500e-01	4.4020	-8.829080	-0.000269	-2.691348	-0.911853	0.021845
 892	4.4550e-01	4.3763	-8.974714	0.000359	3.588464	1.215805	-0.029127
 893	4.4600e-01	4.3683	-8.938306	-0.000090	-0.897116	-0.303951	0.007282
 894	4.4650e-01	4.3026	-9.630069	0.001705	17.045206	5.775072	-0.138353
 895	4.4700e-01	4.2641	-9.156757	-0.001166	-11.662509	-3.951365	0.094662
 896	4.4750e-01	4.2255	-9.338800	0.000449	4.485580	1.519756	-0.036409
 897	4.4800e-01	4.1694	-9.484434	0.000359	3.588464	1.215805	-0.029127
 898	4.4850e-01	4.1485	-9.812111	0.000807	8.074045	2.735560	-0.065535
 899	4.4900e-01	4.1004	-9.666477	-0.000359	-3.588464	-1.215805	0.029127
 900	4.4950e-01	4.0587	-10.176197	0.001256	12.559625	4.255316	-0.101944
 901	4.5000e-01	4.0074	-9.884929	-0.000718	-7.176929	-2.431609	0.058254
 902	4.5050e-01	3.9817	-9.848520	-0.000090	-0.897116	-0.303951	0.007282
 903	4.5100e-01	3.9368	-10.139789	0.000718	7.176929	2.431609	-0.058254
 904	4.5150e-01	3.8903	-10.103380	-0.000090	-0.897116	-0.303951	0.007282
 905	4.5200e-01	3.8646	-10.358240	0.000628	6.279813	2.127658	-0.050972
 906	4.5250e-01	3.7812	-10.285423	-0.000179	-1.794232	-0.607902	0.014563
 907	4.5300e-01	3.7427	-10.431057	0.000359	3.588464	1.215805	-0.029127
 908	4.5350e-01	3.7379	-10.758734	0.000807	8.074045	2.735560	-0.065535
 909	4.5400e-01	3.6962	-10.613100	-0.000359	-3.588464	-1.215805	0.029127
 910	4.5450e-01	3.6609	-10.867960	0.000628	6.279813	2.127658	-0.050972
 911	4.5500e-01	3.6079	-11.341272	0.001166	11.662509	3.951365	-0.094662
 912	4.5550e-01	3.5823	-11.304863	-0.000090	-0.897116	-0.303951	0.007282
 913	4.5600e-01	3.5069	-11.159229	-0.000359	-3.588464	-1.215805	0.029127
 914	4.5650e-01	3.4972	-11.086412	-0.000179	-1.794232	-0.607902	0.014563
 915	4.5700e-01	3.4732	-11.486906	0.000987	9.868277	3.343463	-0.080099
 916	4.5750e-01	3.4090	-11.668949	0.000449	4.485580	1.519756	-0.036409
 917	4.5800e-01	3.3753	-11.778175	0.000269	2.691348	0.911853	-0.021845
 918	4.5850e-01	3.3545	-11.559723	-0.000538	-5.382696	-1.823707	0.043690
 919	4.5900e-01	3.2903	-11.923809	0.000897	8.971161	3.039512	-0.072817
 920	4.5950e-01	3.2758	-11.705357	-0.000538	-5.382696	-1.823707	0.043690
 921	4.6000e-01	3.2133	-12.397120	0.001705	17.045206	5.775072	-0.138353
 922	4.6050e-01	3.1748	-12.215078	-0.000449	-4.485580	-1.519756	0.036409
 923	4.6100e-01	3.1571	-12.105852	-0.000269	-2.691348	-0.911853	0.021845
 924	4.6150e-01	3.0962	-12.360712	0.000628	6.279813	2.127658	-0.050972
 925	4.6200e-01	3.0368	-12.579163	0.000538	5.382696	1.823707	-0.043690
 926	4.6250e-01	3.0047	-12.834023	0.000628	6.279813	2.127658	-0.050972
 927	4.6300e-01	2.9566	-12.688389	-0.000359	-3.588464	-1.215805	0.029127
 928	4.6350e-01	2.9374	-12.761206	0.000179	1.794232	0.607902	-0.014563
 929	4.6400e-01	2.8892	-13.125292	0.000897	8.971161	3.039512	-0.072817
 930	4.6450e-01	2.8571	-13.380152	0.000628	6.279813	2.127658	-0.050972
 931	4.6500e-01	2.8026	-13.380152	-0.000000	-0.000000	-0.000000	0.000000
 932	4.6550e-01	2.8026	-13.198109	-0.000449	-4.485580	-1.519756	0.036409
 933	4.6600e-01	2.7288	-13.598603	0.000987	9.868277	3.343463	-0.080099
 934	4.6650e-01	2.7208	-13.489378	-0.000269	-2.691348	-0.911853	0.021845
 935	4.6700e-01	2.6502	-13.817055	0.000807	8.074045	2.735560	-0.065535
 936	4.6750e-01	2.6021	-13.671421	-0.000359	-3.588464	-1.215805	0.029127
 937	4.6800e-01	2.5796	-13.671421	-0.000000	-0.000000	-0.000000	0.000000
 938	4.6850e-01	2.5363	-13.707829	0.000090	0.897116	0.303951	-0.007282
 939	4.6900e-01	2.4946	-14.108324	0.000987	9.868277	3.343463	-0.080099
 940	4.6950e-01	2.4673	-14.035506	-0.000179	-1.794232	-0.607902	0.014563
 941	4.7000e-01	2.4224	-14.108324	0.000179	1.794232	0.607902	-0.014563
 942	4.7050e-01	2.3807	-14.727269	0.001525	15.250973	5.167170	-0.123789
 943	4.7100e-01	2.3422	-14.217549	-0.001256	-12.559625	-4.255316	0.101944
 944	4.7150e-01	2.3005	-14.436001	0.000538	5.382696	1.823707	-0.043690
 945	4.7200e-01	2.2507	-14.727269	0.000718	7.176929	2.431609	-0.058254
 946	4.7250e-01	2.2267	-14.690861	-0.000090	-0.897116	-0.303951	0.007282
 947	4.7300e-01	2.1753	-15.091355	0.000987	9.868277	3.343463	-0.080099
 948	4.7350e-01	2.1384	-14.872904	-0.000538	-5.382696	-1.823707	0.043690
 949	4.7400e-01	2.0727	-15.273398	0.000987	9.868277	3.343463	-0.080099
 950	4.7450e-01	2.0374	-15.236989	-0.000090	-0.897116	-0.303951	0.007282
 951	4.7500e-01	2.0229	-15.346215	0.000269	2.691348	0.911853	-0.021845
 952	4.7550e-01	1.9796	-15.673892	0.000807	8.074045	2.735560	-0.065535
 953	4.7600e-01	1.9299	-15.419032	-0.000628	-6.279813	-2.127658	0.050972
 954	4.7650e-01	1.8930	-15.528258	0.000269	2.691348	0.911853	-0.021845
 955	4.7700e-01	1.8433	-16.037978	0.001256	12.559625	4.255316	-0.101944
 956	4.7750e-01	1.7839	-16.110795	0.000179	1.794232	0.607902	-0.014563
 957	4.7800e-01	1.7631	-15.710301	-0.000987	-9.868277	-3.343463	0.080099
 958	4.7850e-01	1.7663	-16.183612	-0.001166	-11.662509	-3.951365	-0.094662
 959	4.7900e-01	1.6989	-16.147204	-0.000090	-0.897116	-0.303951	0.007282
 960	4.7950e-01	1.6379	-16.329247	0.000449	4.485580	1.519756	-0.036409
 961	4.8000e-01	1.6283	-16.511290	0.000449	4.485580	1.519756	-0.036409
 962	4.8050e-01	1.5721	-16.474881	-0.000090	-0.897116	-0.303951	0.007282
 963	4.8100e-01	1.5288	-16.766150	0.000718	7.176929	2.431609	-0.058254
 964	4.8150e-01	1.5048	-17.021010	0.000628	6.279813	2.127658	-0.050972
 965	4.8200e-01	1.4406	-16.838967	-0.000449	-4.485580	-1.519756	0.036409
 966	4.8250e-01	1.4294	-16.802558	-0.000090	-0.897116	-0.303951	0.007282
 967	4.8300e-01	1.3700	-17.203053	0.000987	9.868277	3.343463	-0.080099
 968	4.8350e-01	1.3379	-17.312278	0.000269	2.691348	0.911853	-0.021845
 969	4.8400e-01	1.3042	-17.239461	-0.000179	-1.794232	-0.607902	0.014563
 970	4.8450e-01	1.2417	-17.749181	0.001256	12.559625	4.255316	-0.101944
 971	4.8500e-01	1.1968	-17.457913	-0.000718	-7.176929	-2.431609	0.058254
 972	4.8550e-01	1.1663	-17.821998	0.000897	8.971161	3.039512	-0.072817
 973	4.8600e-01	1.1021	-18.004041	0.000449	4.485580	1.519756	-0.036409
 974	4.8650e-01	1.1005	-17.858407	-0.000359	-3.588464	-1.215805	0.029127
 975	4.8700e-01	1.0379	-18.113267	0.000628	6.279813	2.127658	-0.050972
 976	4.8750e-01	1.0026	-18.186084	0.000179	1.794232	0.607902	-0.014563
 977	4.8800e-01	0.9818	-18.331719	0.000359	3.588464	1.215805	-0.029127
 978	4.8850e-01	0.9305	-18.040450	-0.000718	-7.176929	-2.431609	0.058254
 979	4.8900e-01	0.8887	-18.550170	0.001256	12.559625	4.255316	-0.101944
 980	4.8950e-01	0.8615	-18.586579	0.000090	0.897116	0.303951	-0.007282
 981	4.9000e-01	0.8005	-18.914256	0.000807	8.074045	2.735560	-0.065535
 982	4.9050e-01	0.7781	-19.096299	0.000449	4.485580	1.519756	-0.036409
 983	4.9100e-01	0.7604	-19.059890	-0.000090	-0.897116	-0.303951	0.007282
 984	4.9150e-01	0.6978	-18.987073	-0.000179	-1.794232	-0.607902	0.014563
 985	4.9200e-01	0.6690	-19.496793	0.001256	12.559625	4.255316	-0.101944
 986	4.9250e-01	0.6433	-19.169116	-0.000807	-8.074045	-2.735560	0.065535
 987	4.9300e-01	0.5759	-19.460384	0.000718	7.176929	2.431609	-0.058254
 988	4.9350e-01	0.5278	-19.751653	0.000718	7.176929	2.431609	-0.058254
 989	4.9400e-01	0.5053	-19.642427	-0.000269	-2.691348	-0.911853	0.021845
 990	4.9450e-01	0.4716	-19.897287	0.000628	6.279813	2.127658	-0.050972
 991	4.9500e-01	0.3995	-19.824470	-0.000179	-1.794232	-0.607902	0.014563
 992	4.9550e-01	0.3722	-20.188556	0.000897	8.971161	3.039512	-0.072817
 993	4.9600e-01	0.3385	-20.297782	0.000269	2.691348	0.911853	-0.021845
 994	4.9650e-01	0.2952	-20.443416	0.000359	3.588464	1.215805	-0.029127
 995	4.9700e-01	0.2535	-20.734685	0.000718	7.176929	2.431609	-0.058254
 996	4.9750e-01	0.2166	-20.625459	-0.000269	-2.691348	-0.911853	0.021845
 997	4.9800e-01	0.1765	-20.953136	0.000807	8.074045	2.735560	-0.065535
 998	4.9850e-01	0.1733	-20.953136	-0.000000	-0.000000	-0.000000	0.000000
 999	4.9900e-01	0.0834	-20.989545	0.000090	0.897116	0.303951	-0.007282
1000	4.9950e-01	0.0401	-21.353630	0.000897	8.971161	3.039512	-0.072817
1001	5.0000e-01	0.0465	-20.989545	0.000897	8.971161	3.039512	0.072817

PMax (uC/cm2):	4.63e+01
Pr (uC/cm2):	2.22e+00
-Pr (uC/cm2):	0.00e+00
PLoss (uC/cm2):	0.00e+00
C (Max-Eff) (nF):	2.31e-01
K (Eff):	7.83e+02
Vert. (+/-Pr) Shift (uC/cm2):	1.11e+00
Offset (uC/cm2):	2.32e+01

A (Loop Area - uC/cm2·Volts):	7.45e-01



Hysteresis Version: 5.48.1 - Radiant Technologies, Inc., 1999 - 9/12/24

