»»»»»»»»»»»»»»»»»»»»»»»»»»»»»»»»»»»» Hysteresis ««««««««««««««««««««««««««««««««««««
»»»  Executed Version:	5.48.1
»»»  Vision Version:	5.48.4 (R)
»»»  Vision Compiled:	9/18/24
»»»  Driver Version:	5.47.0
»»»  Windows Version:	Windows 8 or 8.1
»»»  Processor Information:	x86 (AMD or Intel) - 32 Processors
»»»  Tester Name:	PMF21124-494 (100V)
»»»  Tester S/N:	PMF21124-494
»»»  Internal Amp Type:	100V RevK 270k
»»»  Internal Amp S/N:	iAB2-596/K     
»»»  Execution Count:	1
»»»»»»»»»»»»»»»»»»»»»»»»»»»»»»»»»»»»»»»»»»««««««««««««««««««««««««««««««««««««««««««

Stored:	10/10/2025 - 13:40:11
Configured:	10/10/25 10:37:25 AM
Executed:	10/10/25 01:39:02 PM

»»»»»»»»»»»»»»»»»»»»»»»»»»»»»»»»»»» Sample Info ««««««««««««««««««««««««««««««««««««
Sample Name:	Int. Ref. Ferroelectric
Lot Name:	N/A
Wafer Name:	N/A
Die Row/Column:	0/0
Capacitor Number:	0
Sample Area (cm2):	1.00e-04
Sample Thickness (microns):	3.00e-01

Amplifier:	Internal

»»»»»»»»»»»»»»»»»»»»»»»»»»»»»»»»»»» Tester Info «««««««««««««««««««««««««««««««««««
Tester Name:	PMF21124-494 (100V)
Tester Serial Number:	PMF21124-494
Return Signal Amp. Level:	1.9 [Index: 2]

»»»»»»»»»»»»»»»»»»»»»»»»»»»»»»»» Hysteresis Info ««««««««««««««««««««««««««««««««««
Task Name:	Hyst-170
Volts:	20.00
Field:	666.67 (kV/cm)
DCBias:	0.00
DCField:	0.00 (kV/cm)
Hysteresis Period (ms):	1.00e+02
Preset:	Enabled
Preset Delay (ms):	1.00e+03
Profile:	Standard Monopolar

»»»»»»»»»»»»»»»»»»»»»»»»»»»»»»»»»»»»»» Data «««««««««««««««««««««««««««««««««««««««
Points:	2001

Valid Data

Point	Time (ms)	Drive Voltage	Measured Polarization (uC/cm2)	Capacitance (uF)	Normalized Capacitance (uF/cm2)	Dielectric Constant	Instantaneous Current (mA)
   1	0.0000e+00	0.0497	-23.174532	-0.000096	-0.964990	-0.326947	0.000044
   2	5.0000e-02	0.0481	-23.152536	-0.000096	-0.964990	-0.326947	0.000044
   3	1.0000e-01	0.0610	-23.090620	0.000272	2.716268	0.920297	0.000124
   4	1.5000e-01	0.1027	-23.038073	0.000231	2.305254	0.781041	0.000105
   5	2.0000e-01	0.0979	-22.979415	-0.000257	-2.573307	-0.871860	0.000117
   6	2.5000e-01	0.1348	-22.921573	0.000254	2.537566	0.859751	0.000116
   7	3.0000e-01	0.1171	-22.862508	-0.000259	-2.591177	-0.877915	0.000118
   8	3.5000e-01	0.1524	-22.800999	0.000270	2.698398	0.914242	0.000123
   9	4.0000e-01	0.1861	-22.746823	0.000238	2.376735	0.805260	0.000108
  10	4.5000e-01	0.2037	-22.683277	0.000279	2.787749	0.944515	0.000127
  11	5.0000e-01	0.2118	-22.628286	0.000241	2.412475	0.817369	0.000110
  12	5.5000e-01	0.2390	-22.565963	0.000273	2.734139	0.926351	0.000125
  13	6.0000e-01	0.2551	-22.502825	0.000277	2.769879	0.938460	0.000126
  14	6.5000e-01	0.2807	-22.447426	0.000243	2.430345	0.823423	0.000111
  15	7.0000e-01	0.3016	-22.388769	0.000257	2.573307	0.871860	0.000117
  16	7.5000e-01	0.3337	-22.324409	0.000282	2.823489	0.956624	0.000129
  17	8.0000e-01	0.3401	-22.264937	0.000261	2.609047	0.883969	0.000119
  18	8.5000e-01	0.3674	-22.208723	0.000247	2.466086	0.835532	0.000112
  19	9.0000e-01	0.3738	-22.151288	0.000252	2.519696	0.853696	0.000115
  20	9.5000e-01	0.4059	-22.094260	0.000250	2.501826	0.847642	0.000114
  21	1.0000e+00	0.4123	-22.032751	0.000270	2.698398	0.914242	0.000123
  22	1.0500e+00	0.4556	-21.975723	0.000250	2.501826	0.847642	0.000114
  23	1.1000e+00	0.4700	-21.914215	0.000270	2.698398	0.914242	0.000123
  24	1.1500e+00	0.4700	-21.851891	-0.000273	-2.734139	-0.926351	0.000125
  25	1.2000e+00	0.4909	-21.794863	0.000250	2.501826	0.847642	0.000114
  26	1.2500e+00	0.5134	-21.732947	0.000272	2.716268	0.920297	0.000124
  27	1.3000e+00	0.5422	-21.670624	0.000273	2.734139	0.926351	0.000125
  28	1.3500e+00	0.5791	-21.613188	0.000252	2.519696	0.853696	0.000115
  29	1.4000e+00	0.5904	-21.555753	0.000252	2.519696	0.853696	0.000115
  30	1.4500e+00	0.6064	-21.498318	0.000252	2.519696	0.853696	0.000115
  31	1.5000e+00	0.6096	-21.439661	0.000257	2.573307	0.871860	0.000117
  32	1.5500e+00	0.6481	-21.379781	0.000263	2.626917	0.890024	0.000120
  33	1.6000e+00	0.6786	-21.318680	0.000268	2.680528	0.908187	0.000122
  34	1.6500e+00	0.6722	-21.258393	-0.000264	-2.644788	-0.896078	0.000121
  35	1.7000e+00	0.6818	-21.199328	0.000259	2.591177	0.877915	0.000118
  36	1.7500e+00	0.7091	-21.141486	0.000254	2.537566	0.859751	0.000116
  37	1.8000e+00	0.7444	-21.085272	0.000247	2.466086	0.835532	0.000112
  38	1.8500e+00	0.7668	-21.022134	0.000277	2.769879	0.938460	0.000126
  39	1.9000e+00	0.7556	-20.964292	-0.000254	-2.537566	-0.859751	0.000116
  40	1.9500e+00	0.7845	-20.897895	0.000291	2.912840	0.986897	0.000133
  41	2.0000e+00	0.8374	-20.845755	0.000229	2.287384	0.774987	0.000104
  42	2.0500e+00	0.8326	-20.782617	-0.000277	-2.769879	-0.938460	0.000126
  43	2.1000e+00	0.8470	-20.724367	0.000256	2.555437	0.865805	0.000116
  44	2.1500e+00	0.8727	-20.664080	0.000264	2.644788	0.896078	0.000121
  45	2.2000e+00	0.9000	-20.603794	0.000264	2.644788	0.896078	0.000121
  46	2.2500e+00	0.9208	-20.549617	0.000238	2.376735	0.805260	0.000108
  47	2.3000e+00	0.9465	-20.489738	0.000263	2.626917	0.890024	0.000120
  48	2.3500e+00	0.9529	-20.428229	0.000270	2.698398	0.914242	0.000123
  49	2.4000e+00	0.9770	-20.370386	0.000254	2.537566	0.859751	0.000116
  50	2.4500e+00	1.0075	-20.305212	0.000286	2.859230	0.968733	0.000130
  51	2.5000e+00	1.0075	-20.252257	-0.000232	-2.323124	-0.787096	0.000106
  52	2.5500e+00	1.0395	-20.195636	0.000248	2.483956	0.841587	0.000113
  53	2.6000e+00	1.0588	-20.134942	0.000266	2.662658	0.902133	0.000121
  54	2.6500e+00	1.0925	-20.077914	0.000250	2.501826	0.847642	0.000114
  55	2.7000e+00	1.0700	-20.018442	-0.000261	-2.609047	-0.883969	0.000119
  56	2.7500e+00	1.1198	-19.958563	0.000263	2.626917	0.890024	0.000120
  57	2.8000e+00	1.1374	-19.902757	0.000245	2.448216	0.829478	0.000112
  58	2.8500e+00	1.1518	-19.840841	0.000272	2.716268	0.920297	0.000124
  59	2.9000e+00	1.1759	-19.786257	0.000239	2.394605	0.811314	0.000109
  60	2.9500e+00	1.2256	-19.721490	0.000284	2.841360	0.962679	0.000130
  61	3.0000e+00	1.2353	-19.662832	0.000257	2.573307	0.871860	0.000117
  62	3.0500e+00	1.2561	-19.606619	0.000247	2.466086	0.835532	0.000112
  63	3.1000e+00	1.2609	-19.552850	0.000236	2.358865	0.799205	0.000108
  64	3.1500e+00	1.2770	-19.493378	0.000261	2.609047	0.883969	0.000119
  65	3.2000e+00	1.2978	-19.434720	0.000257	2.573307	0.871860	0.000117
  66	3.2500e+00	1.3379	-19.377693	0.000250	2.501826	0.847642	0.000114
  67	3.3000e+00	1.3443	-19.321072	0.000248	2.483956	0.841587	0.000113
  68	3.3500e+00	1.3748	-19.262415	0.000257	2.573307	0.871860	0.000117
  69	3.4000e+00	1.3668	-19.203757	-0.000257	-2.573307	-0.871860	0.000117
  70	3.4500e+00	1.4021	-19.143063	0.000266	2.662658	0.902133	0.000121
  71	3.5000e+00	1.4165	-19.081962	0.000268	2.680528	0.908187	0.000122
  72	3.5500e+00	1.4165	-19.028193	-0.000236	-2.358865	-0.799205	0.000108
  73	3.6000e+00	1.4534	-18.973609	0.000239	2.394605	0.811314	0.000109
  74	3.6500e+00	1.4951	-18.916988	0.000248	2.483956	0.841587	0.000113
  75	3.7000e+00	1.5160	-18.858738	0.000256	2.555437	0.865805	0.000116
  76	3.7500e+00	1.5240	-18.793563	0.000286	2.859230	0.968733	0.000130
  77	3.8000e+00	1.5513	-18.738572	0.000241	2.412475	0.817369	0.000110
  78	3.8500e+00	1.5593	-18.683173	0.000243	2.430345	0.823423	0.000111
  79	3.9000e+00	1.5930	-18.626553	0.000248	2.483956	0.841587	0.000113
  80	3.9500e+00	1.6267	-18.563007	0.000279	2.787749	0.944515	0.000127
  81	4.0000e+00	1.6363	-18.511682	0.000225	2.251643	0.762877	0.000103
  82	4.0500e+00	1.6475	-18.451396	0.000264	2.644788	0.896078	0.000121
  83	4.1000e+00	1.6652	-18.395182	0.000247	2.466086	0.835532	0.000112
  84	4.1500e+00	1.6716	-18.336118	0.000259	2.591177	0.877915	0.000118
  85	4.2000e+00	1.7037	-18.275831	0.000264	2.644788	0.896078	0.000121
  86	4.2500e+00	1.7229	-18.221654	0.000238	2.376735	0.805260	0.000108
  87	4.3000e+00	1.7310	-18.164626	0.000250	2.501826	0.847642	0.000114
  88	4.3500e+00	1.7550	-18.109228	0.000243	2.430345	0.823423	0.000111
  89	4.4000e+00	1.7695	-18.052607	0.000248	2.483956	0.841587	0.000113
  90	4.4500e+00	1.8048	-17.994357	0.000256	2.555437	0.865805	0.000116
  91	4.5000e+00	1.8272	-17.937737	0.000248	2.483956	0.841587	0.000113
  92	4.5500e+00	1.8481	-17.874191	0.000279	2.787749	0.944515	0.000127
  93	4.6000e+00	1.8689	-17.816756	0.000252	2.519696	0.853696	0.000115
  94	4.6500e+00	1.8850	-17.765431	0.000225	2.251643	0.762877	0.000103
  95	4.7000e+00	1.9010	-17.704737	0.000266	2.662658	0.902133	0.000121
  96	4.7500e+00	1.9074	-17.646487	0.000256	2.555437	0.865805	0.000116
  97	4.8000e+00	1.9507	-17.590681	0.000245	2.448216	0.829478	0.000112
  98	4.8500e+00	1.9540	-17.534467	0.000247	2.466086	0.835532	0.000112
  99	4.9000e+00	1.9620	-17.480291	0.000238	2.376735	0.805260	0.000108
 100	4.9500e+00	2.0037	-17.420412	0.000263	2.626917	0.890024	0.000120
 101	5.0000e+00	2.0261	-17.361347	0.000259	2.591177	0.877915	0.000118
 102	5.0500e+00	2.0614	-17.304319	0.000250	2.501826	0.847642	0.000114
 103	5.1000e+00	2.0406	-17.244847	-0.000261	-2.609047	-0.883969	0.000119
 104	5.1500e+00	2.0855	-17.186190	0.000257	2.573307	0.871860	0.000117
 105	5.2000e+00	2.1031	-17.126718	0.000261	2.609047	0.883969	0.000119
 106	5.2500e+00	2.1224	-17.069690	0.000250	2.501826	0.847642	0.000114
 107	5.3000e+00	2.1529	-17.011847	0.000254	2.537566	0.859751	0.000116
 108	5.3500e+00	2.1898	-16.952375	0.000261	2.609047	0.883969	0.000119
 109	5.4000e+00	2.1802	-16.897791	-0.000239	-2.394605	-0.811314	0.000109
 110	5.4500e+00	2.1882	-16.841170	0.000248	2.483956	0.841587	0.000113
 111	5.5000e+00	2.2235	-16.780069	0.000268	2.680528	0.908187	0.000122
 112	5.5500e+00	2.2572	-16.725485	0.000239	2.394605	0.811314	0.000109
 113	5.6000e+00	2.2539	-16.663162	-0.000273	-2.734139	-0.926351	0.000125
 114	5.6500e+00	2.2989	-16.604912	0.000256	2.555437	0.865805	0.000116
 115	5.7000e+00	2.3101	-16.547069	0.000254	2.537566	0.859751	0.000116
 116	5.7500e+00	2.3053	-16.496966	-0.000220	-2.198033	-0.744714	0.000100
 117	5.8000e+00	2.3422	-16.437494	0.000261	2.609047	0.883969	0.000119
 118	5.8500e+00	2.3630	-16.381688	0.000245	2.448216	0.829478	0.000112
 119	5.9000e+00	2.3807	-16.322216	0.000261	2.609047	0.883969	0.000119
 120	5.9500e+00	2.4015	-16.266003	0.000247	2.466086	0.835532	0.000112
 121	6.0000e+00	2.4336	-16.209382	0.000248	2.483956	0.841587	0.000113
 122	6.0500e+00	2.4609	-16.150725	0.000257	2.573307	0.871860	0.000117
 123	6.1000e+00	2.4577	-16.102251	-0.000213	-2.126552	-0.720495	0.000097
 124	6.1500e+00	2.4769	-16.046852	0.000243	2.430345	0.823423	0.000111
 125	6.2000e+00	2.4946	-15.997157	0.000218	2.180163	0.738659	0.000099
 126	6.2500e+00	2.4946	-15.938499	-0.000257	-2.573307	-0.871860	0.000117
 127	6.3000e+00	2.5539	-15.883508	0.000241	2.412475	0.817369	0.000110
 128	6.3500e+00	2.5539	-15.824036	-0.000261	-2.609047	-0.883969	0.000119
 129	6.4000e+00	2.5764	-15.766193	0.000254	2.537566	0.859751	0.000116
 130	6.4500e+00	2.6197	-15.709980	0.000247	2.466086	0.835532	0.000112
 131	6.5000e+00	2.6213	-15.655804	0.000238	2.376735	0.805260	0.000108
 132	6.5500e+00	2.6566	-15.604886	0.000223	2.233773	0.756823	0.000102
 133	6.6000e+00	2.6791	-15.552746	0.000229	2.287384	0.774987	0.000104
 134	6.6500e+00	2.6871	-15.500199	0.000231	2.305254	0.781041	0.000105
 135	6.7000e+00	2.7224	-15.441134	0.000259	2.591177	0.877915	0.000118
 136	6.7500e+00	2.7224	-15.391031	-0.000220	-2.198033	-0.744714	0.000100
 137	6.8000e+00	2.7336	-15.330744	0.000264	2.644788	0.896078	0.000121
 138	6.8500e+00	2.7481	-15.274124	0.000248	2.483956	0.841587	0.000113
 139	6.9000e+00	2.7785	-15.219947	0.000238	2.376735	0.805260	0.000108
 140	6.9500e+00	2.8090	-15.168215	0.000227	2.269514	0.768932	0.000103
 141	7.0000e+00	2.8058	-15.117297	-0.000223	-2.233773	-0.756823	0.000102
 142	7.0500e+00	2.8443	-15.061083	0.000247	2.466086	0.835532	0.000112
 143	7.1000e+00	2.8780	-15.006500	0.000239	2.394605	0.811314	0.000109
 144	7.1500e+00	2.9037	-14.950694	0.000245	2.448216	0.829478	0.000112
 145	7.2000e+00	2.9069	-14.894888	0.000245	2.448216	0.829478	0.000112
 146	7.2500e+00	2.9245	-14.843563	0.000225	2.251643	0.762877	0.000103
 147	7.3000e+00	2.9422	-14.788571	0.000241	2.412475	0.817369	0.000110
 148	7.3500e+00	2.9807	-14.736431	0.000229	2.287384	0.774987	0.000104
 149	7.4000e+00	2.9710	-14.678589	-0.000254	-2.537566	-0.859751	0.000116
 150	7.4500e+00	2.9919	-14.621561	0.000250	2.501826	0.847642	0.000114
 151	7.5000e+00	3.0192	-14.568199	0.000234	2.340994	0.793150	0.000107
 152	7.5500e+00	3.0577	-14.518503	0.000218	2.180163	0.738659	0.000099
 153	7.6000e+00	3.0801	-14.464734	0.000236	2.358865	0.799205	0.000108
 154	7.6500e+00	3.0962	-14.414224	0.000222	2.215903	0.750768	0.000101
 155	7.7000e+00	3.1170	-14.356788	0.000252	2.519696	0.853696	0.000115
 156	7.7500e+00	3.1379	-14.301390	0.000243	2.430345	0.823423	0.000111
 157	7.8000e+00	3.1539	-14.246398	0.000241	2.412475	0.817369	0.000110
 158	7.8500e+00	3.1668	-14.190592	0.000245	2.448216	0.829478	0.000112
 159	7.9000e+00	3.1860	-14.138045	0.000231	2.305254	0.781041	0.000105
 160	7.9500e+00	3.1828	-14.084276	-0.000236	-2.358865	-0.799205	0.000108
 161	8.0000e+00	3.2245	-14.026433	0.000254	2.537566	0.859751	0.000116
 162	8.0500e+00	3.2341	-13.975923	0.000222	2.215903	0.750768	0.000101
 163	8.1000e+00	3.2694	-13.922968	0.000232	2.323124	0.787096	0.000106
 164	8.1500e+00	3.2823	-13.865126	0.000254	2.537566	0.859751	0.000116
 165	8.2000e+00	3.2935	-13.808912	0.000247	2.466086	0.835532	0.000112
 166	8.2500e+00	3.3224	-13.753107	0.000245	2.448216	0.829478	0.000112
 167	8.3000e+00	3.3480	-13.698523	0.000239	2.394605	0.811314	0.000109
 168	8.3500e+00	3.3577	-13.650456	0.000211	2.108682	0.714441	0.000096
 169	8.4000e+00	3.3737	-13.596280	0.000238	2.376735	0.805260	0.000108
 170	8.4500e+00	3.3930	-13.544140	0.000229	2.287384	0.774987	0.000104
 171	8.5000e+00	3.3946	-13.486705	0.000252	2.519696	0.853696	0.000115
 172	8.5500e+00	3.4491	-13.432528	0.000238	2.376735	0.805260	0.000108
 173	8.6000e+00	3.4635	-13.376315	0.000247	2.466086	0.835532	0.000112
 174	8.6500e+00	3.4700	-13.323768	0.000231	2.305254	0.781041	0.000105
 175	8.7000e+00	3.4908	-13.264703	0.000259	2.591177	0.877915	0.000118
 176	8.7500e+00	3.5036	-13.214600	0.000220	2.198033	0.744714	0.000100
 177	8.8000e+00	3.5454	-13.158386	0.000247	2.466086	0.835532	0.000112
 178	8.8500e+00	3.5454	-13.106247	-0.000229	-2.287384	-0.774987	0.000104
 179	8.9000e+00	3.5662	-13.056143	0.000220	2.198033	0.744714	0.000100
 180	8.9500e+00	3.5983	-13.000338	0.000245	2.448216	0.829478	0.000112
 181	9.0000e+00	3.6208	-12.942902	0.000252	2.519696	0.853696	0.000115
 182	9.0500e+00	3.6609	-12.888318	0.000239	2.394605	0.811314	0.000109
 183	9.1000e+00	3.6673	-12.833327	0.000241	2.412475	0.817369	0.000110
 184	9.1500e+00	3.7026	-12.781187	0.000229	2.287384	0.774987	0.000104
 185	9.2000e+00	3.7074	-12.727418	0.000236	2.358865	0.799205	0.000108
 186	9.2500e+00	3.7218	-12.672834	0.000239	2.394605	0.811314	0.000109
 187	9.3000e+00	3.7379	-12.616214	0.000248	2.483956	0.841587	0.000113
 188	9.3500e+00	3.7892	-12.564481	0.000227	2.269514	0.768932	0.000103
 189	9.4000e+00	3.7667	-12.511526	-0.000232	-2.323124	-0.787096	0.000106
 190	9.4500e+00	3.8101	-12.458165	0.000234	2.340994	0.793150	0.000107
 191	9.5000e+00	3.8293	-12.407654	0.000222	2.215903	0.750768	0.000101
 192	9.5500e+00	3.8534	-12.352256	0.000243	2.430345	0.823423	0.000111
 193	9.6000e+00	3.8582	-12.293191	0.000259	2.591177	0.877915	0.000118
 194	9.6500e+00	3.8774	-12.243088	0.000220	2.198033	0.744714	0.000100
 195	9.7000e+00	3.8967	-12.191763	0.000225	2.251643	0.762877	0.000103
 196	9.7500e+00	3.9240	-12.139215	0.000231	2.305254	0.781041	0.000105
 197	9.8000e+00	3.9609	-12.083002	0.000247	2.466086	0.835532	0.000112
 198	9.8500e+00	3.9657	-12.031677	0.000225	2.251643	0.762877	0.000103
 199	9.9000e+00	3.9609	-11.977500	-0.000238	-2.376735	-0.805260	0.000108
 200	9.9500e+00	4.0234	-11.921694	0.000245	2.448216	0.829478	0.000112
 201	1.0000e+01	4.0330	-11.868333	0.000234	2.340994	0.793150	0.000107
 202	1.0050e+01	4.0395	-11.813341	0.000241	2.412475	0.817369	0.000110
 203	1.0100e+01	4.0748	-11.764460	0.000214	2.144422	0.726550	0.000098
 204	1.0150e+01	4.0844	-11.712728	0.000227	2.269514	0.768932	0.000103
 205	1.0200e+01	4.1116	-11.662217	0.000222	2.215903	0.750768	0.000101
 206	1.0250e+01	4.1341	-11.607633	0.000239	2.394605	0.811314	0.000109
 207	1.0300e+01	4.1502	-11.551013	0.000248	2.483956	0.841587	0.000113
 208	1.0350e+01	4.1758	-11.497244	0.000236	2.358865	0.799205	0.000108
 209	1.0400e+01	4.1999	-11.440216	0.000250	2.501826	0.847642	0.000114
 210	1.0450e+01	4.1774	-11.387261	-0.000232	-2.323124	-0.787096	0.000106
 211	1.0500e+01	4.2288	-11.337158	0.000220	2.198033	0.744714	0.000100
 212	1.0550e+01	4.2608	-11.284203	0.000232	2.323124	0.787096	0.000106
 213	1.0600e+01	4.2448	-11.235730	-0.000213	-2.126552	-0.720495	0.000097
 214	1.0650e+01	4.3026	-11.177887	0.000254	2.537566	0.859751	0.000116
 215	1.0700e+01	4.3042	-11.126969	0.000223	2.233773	0.756823	0.000102
 216	1.0750e+01	4.3459	-11.078903	0.000211	2.108682	0.714441	0.000096
 217	1.0800e+01	4.3330	-11.019431	-0.000261	-2.609047	-0.883969	0.000119
 218	1.0850e+01	4.3523	-10.967698	0.000227	2.269514	0.768932	0.000103
 219	1.0900e+01	4.3699	-10.913522	0.000238	2.376735	0.805260	0.000108
 220	1.0950e+01	4.3924	-10.860160	0.000234	2.340994	0.793150	0.000107
 221	1.1000e+01	4.4213	-10.812908	0.000207	2.072942	0.702332	0.000095
 222	1.1050e+01	4.4485	-10.757102	0.000245	2.448216	0.829478	0.000112
 223	1.1100e+01	4.4485	-10.705370	-0.000227	-2.269514	-0.768932	0.000103
 224	1.1150e+01	4.4919	-10.650786	0.000239	2.394605	0.811314	0.000109
 225	1.1200e+01	4.4999	-10.598646	0.000229	2.287384	0.774987	0.000104
 226	1.1250e+01	4.5239	-10.548950	0.000218	2.180163	0.738659	0.000099
 227	1.1300e+01	4.5400	-10.492329	0.000248	2.483956	0.841587	0.000113
 228	1.1350e+01	4.5592	-10.441819	0.000222	2.215903	0.750768	0.000101
 229	1.1400e+01	4.5769	-10.384791	0.000250	2.501826	0.847642	0.000114
 230	1.1450e+01	4.6170	-10.338354	0.000204	2.037201	0.690222	0.000093
 231	1.1500e+01	4.6282	-10.282548	0.000245	2.448216	0.829478	0.000112
 232	1.1550e+01	4.6459	-10.230001	0.000231	2.305254	0.781041	0.000105
 233	1.1600e+01	4.6619	-10.173788	0.000247	2.466086	0.835532	0.000112
 234	1.1650e+01	4.6779	-10.123684	0.000220	2.198033	0.744714	0.000100
 235	1.1700e+01	4.6876	-10.067064	0.000248	2.483956	0.841587	0.000113
 236	1.1750e+01	4.7277	-10.019812	0.000207	2.072942	0.702332	0.000095
 237	1.1800e+01	4.7277	-9.966043	-0.000236	-2.358865	-0.799205	0.000108
 238	1.1850e+01	4.7389	-9.917976	0.000211	2.108682	0.714441	0.000096
 239	1.1900e+01	4.7934	-9.861763	0.000247	2.466086	0.835532	0.000112
 240	1.1950e+01	4.7934	-9.810845	-0.000223	-2.233773	-0.756823	0.000102
 241	1.2000e+01	4.8127	-9.754225	0.000248	2.483956	0.841587	0.000113
 242	1.2050e+01	4.8608	-9.704122	0.000220	2.198033	0.744714	0.000100
 243	1.2100e+01	4.8640	-9.653204	0.000223	2.233773	0.756823	0.000102
 244	1.2150e+01	4.8769	-9.598213	0.000241	2.412475	0.817369	0.000110
 245	1.2200e+01	4.9122	-9.542407	0.000245	2.448216	0.829478	0.000112
 246	1.2250e+01	4.9234	-9.490674	0.000227	2.269514	0.768932	0.000103
 247	1.2300e+01	4.9442	-9.443015	0.000209	2.090812	0.708386	0.000095
 248	1.2350e+01	4.9795	-9.392097	0.000223	2.233773	0.756823	0.000102
 249	1.2400e+01	4.9651	-9.336699	-0.000243	-2.430345	-0.823423	0.000111
 250	1.2450e+01	4.9972	-9.285781	0.000223	2.233773	0.756823	0.000102
 251	1.2500e+01	5.0212	-9.229160	0.000248	2.483956	0.841587	0.000113
 252	1.2550e+01	5.0341	-9.182316	0.000206	2.055071	0.696277	0.000094
 253	1.2600e+01	5.0549	-9.133842	0.000213	2.126552	0.720495	0.000097
 254	1.2650e+01	5.0694	-9.078443	0.000243	2.430345	0.823423	0.000111
 255	1.2700e+01	5.1143	-9.026711	0.000227	2.269514	0.768932	0.000103
 256	1.2750e+01	5.1143	-8.974571	-0.000229	-2.287384	-0.774987	0.000104
 257	1.2800e+01	5.1464	-8.918765	0.000245	2.448216	0.829478	0.000112
 258	1.2850e+01	5.1576	-8.870699	0.000211	2.108682	0.714441	0.000096
 259	1.2900e+01	5.1849	-8.817744	0.000232	2.323124	0.787096	0.000106
 260	1.2950e+01	5.1945	-8.766826	0.000223	2.233773	0.756823	0.000102
 261	1.3000e+01	5.2186	-8.712242	0.000239	2.394605	0.811314	0.000109
 262	1.3050e+01	5.2330	-8.660917	0.000225	2.251643	0.762877	0.000103
 263	1.3100e+01	5.2683	-8.612036	0.000214	2.144422	0.726550	0.000098
 264	1.3150e+01	5.2699	-8.558267	0.000236	2.358865	0.799205	0.000108
 265	1.3200e+01	5.3261	-8.506942	0.000225	2.251643	0.762877	0.000103
 266	1.3250e+01	5.3212	-8.454802	-0.000229	-2.287384	-0.774987	0.000104
 267	1.3300e+01	5.3116	-8.402255	-0.000231	-2.305254	-0.781041	0.000105
 268	1.3350e+01	5.3565	-8.356225	0.000202	2.019331	0.684168	0.000092
 269	1.3400e+01	5.3742	-8.304085	0.000229	2.287384	0.774987	0.000104
 270	1.3450e+01	5.4015	-8.253167	0.000223	2.233773	0.756823	0.000102
 271	1.3500e+01	5.4015	-8.201028	-0.000229	-2.287384	-0.774987	0.000104
 272	1.3550e+01	5.4448	-8.150517	0.000222	2.215903	0.750768	0.000101
 273	1.3600e+01	5.4544	-8.107746	0.000188	1.876370	0.635731	0.000086
 274	1.3650e+01	5.4688	-8.056421	0.000225	2.251643	0.762877	0.000103
 275	1.3700e+01	5.5057	-8.006725	0.000218	2.180163	0.738659	0.000099
 276	1.3750e+01	5.5073	-7.953771	0.000232	2.323124	0.787096	0.000106
 277	1.3800e+01	5.5442	-7.903668	0.000220	2.198033	0.744714	0.000100
 278	1.3850e+01	5.5587	-7.850306	0.000234	2.340994	0.793150	0.000107
 279	1.3900e+01	5.5699	-7.805498	0.000197	1.965720	0.666004	0.000090
 280	1.3950e+01	5.5988	-7.755395	0.000220	2.198033	0.744714	0.000100
 281	1.4000e+01	5.6260	-7.700811	0.000239	2.394605	0.811314	0.000109
 282	1.4050e+01	5.6453	-7.652337	0.000213	2.126552	0.720495	0.000097
 283	1.4100e+01	5.6710	-7.603049	0.000216	2.162293	0.732605	0.000099
 284	1.4150e+01	5.6838	-7.553760	0.000216	2.162293	0.732605	0.000099
 285	1.4200e+01	5.7191	-7.502842	0.000223	2.233773	0.756823	0.000102
 286	1.4250e+01	5.7287	-7.453147	0.000218	2.180163	0.738659	0.000099
 287	1.4300e+01	5.7464	-7.396119	0.000250	2.501826	0.847642	0.000114
 288	1.4350e+01	5.7560	-7.348052	0.000211	2.108682	0.714441	0.000096
 289	1.4400e+01	5.7784	-7.297134	0.000223	2.233773	0.756823	0.000102
 290	1.4450e+01	5.8041	-7.241329	0.000245	2.448216	0.829478	0.000112
 291	1.4500e+01	5.8121	-7.193669	0.000209	2.090812	0.708386	0.000095
 292	1.4550e+01	5.8506	-7.143974	0.000218	2.180163	0.738659	0.000099
 293	1.4600e+01	5.8763	-7.093463	0.000222	2.215903	0.750768	0.000101
 294	1.4650e+01	5.9052	-7.040101	0.000234	2.340994	0.793150	0.000107
 295	1.4700e+01	5.9068	-6.983888	0.000247	2.466086	0.835532	0.000112
 296	1.4750e+01	5.9228	-6.933378	0.000222	2.215903	0.750768	0.000101
 297	1.4800e+01	5.9533	-6.880830	0.000231	2.305254	0.781041	0.000105
 298	1.4850e+01	5.9405	-6.830727	-0.000220	-2.198033	-0.744714	0.000100
 299	1.4900e+01	5.9742	-6.776551	0.000238	2.376735	0.805260	0.000108
 300	1.4950e+01	5.9998	-6.729299	0.000207	2.072942	0.702332	0.000095
 301	1.5000e+01	6.0255	-6.678381	0.000223	2.233773	0.756823	0.000102
 302	1.5050e+01	6.0399	-6.624205	0.000238	2.376735	0.805260	0.000108
 303	1.5100e+01	6.0608	-6.572879	0.000225	2.251643	0.762877	0.000103
 304	1.5150e+01	6.0833	-6.522776	0.000220	2.198033	0.744714	0.000100
 305	1.5200e+01	6.1105	-6.469414	0.000234	2.340994	0.793150	0.000107
 306	1.5250e+01	6.1153	-6.417275	0.000229	2.287384	0.774987	0.000104
 307	1.5300e+01	6.1426	-6.366357	0.000223	2.233773	0.756823	0.000102
 308	1.5350e+01	6.1603	-6.317883	0.000213	2.126552	0.720495	0.000097
 309	1.5400e+01	6.1939	-6.264114	0.000236	2.358865	0.799205	0.000108
 310	1.5450e+01	6.2036	-6.217269	0.000206	2.055071	0.696277	0.000094
 311	1.5500e+01	6.2565	-6.166352	0.000223	2.233773	0.756823	0.000102
 312	1.5550e+01	6.2629	-6.113397	0.000232	2.323124	0.787096	0.000106
 313	1.5600e+01	6.2485	-6.058813	-0.000239	-2.394605	-0.811314	0.000109
 314	1.5650e+01	6.3014	-6.009932	0.000214	2.144422	0.726550	0.000098
 315	1.5700e+01	6.3143	-5.961051	0.000214	2.144422	0.726550	0.000098
 316	1.5750e+01	6.3271	-5.907282	0.000236	2.358865	0.799205	0.000108
 317	1.5800e+01	6.3560	-5.857179	0.000220	2.198033	0.744714	0.000100
 318	1.5850e+01	6.3608	-5.804631	0.000231	2.305254	0.781041	0.000105
 319	1.5900e+01	6.4057	-5.752084	0.000231	2.305254	0.781041	0.000105
 320	1.5950e+01	6.4009	-5.701574	-0.000222	-2.215903	-0.750768	0.000101
 321	1.6000e+01	6.4137	-5.650249	0.000225	2.251643	0.762877	0.000103
 322	1.6050e+01	6.4314	-5.601367	0.000214	2.144422	0.726550	0.000098
 323	1.6100e+01	6.4570	-5.551264	0.000220	2.198033	0.744714	0.000100
 324	1.6150e+01	6.4747	-5.493829	0.000252	2.519696	0.853696	0.000115
 325	1.6200e+01	6.4987	-5.447799	0.000202	2.019331	0.684168	0.000092
 326	1.6250e+01	6.5340	-5.407880	0.000175	1.751278	0.593349	0.000080
 327	1.6300e+01	6.5517	-5.349630	0.000256	2.555437	0.865805	0.000116
 328	1.6350e+01	6.5661	-5.298305	0.000225	2.251643	0.762877	0.000103
 329	1.6400e+01	6.5709	-5.247387	0.000223	2.233773	0.756823	0.000102
 330	1.6450e+01	6.5902	-5.200542	0.000206	2.055071	0.696277	0.000094
 331	1.6500e+01	6.6191	-5.146773	0.000236	2.358865	0.799205	0.000108
 332	1.6550e+01	6.6592	-5.095448	0.000225	2.251643	0.762877	0.000103
 333	1.6600e+01	6.6592	-5.047789	-0.000209	-2.090812	-0.708386	0.000095
 334	1.6650e+01	6.6897	-4.996871	0.000223	2.233773	0.756823	0.000102
 335	1.6700e+01	6.6736	-4.948397	-0.000213	-2.126552	-0.720495	0.000097
 336	1.6750e+01	6.7153	-4.895443	0.000232	2.323124	0.787096	0.000106
 337	1.6800e+01	6.7185	-4.848191	0.000207	2.072942	0.702332	0.000095
 338	1.6850e+01	6.7506	-4.800939	0.000207	2.072942	0.702332	0.000095
 339	1.6900e+01	6.7763	-4.749614	0.000225	2.251643	0.762877	0.000103
 340	1.6950e+01	6.7955	-4.695030	0.000239	2.394605	0.811314	0.000109
 341	1.7000e+01	6.8132	-4.644520	0.000222	2.215903	0.750768	0.000101
 342	1.7050e+01	6.8308	-4.596453	0.000211	2.108682	0.714441	0.000096
 343	1.7100e+01	6.8501	-4.545536	0.000223	2.233773	0.756823	0.000102
 344	1.7150e+01	6.8773	-4.497062	0.000213	2.126552	0.720495	0.000097
 345	1.7200e+01	6.8870	-4.445329	0.000227	2.269514	0.768932	0.000103
 346	1.7250e+01	6.9303	-4.395226	0.000220	2.198033	0.744714	0.000100
 347	1.7300e+01	6.9367	-4.348382	0.000206	2.055071	0.696277	0.000094
 348	1.7350e+01	6.9656	-4.297871	0.000222	2.215903	0.750768	0.000101
 349	1.7400e+01	6.9656	-4.250620	-0.000207	-2.072942	-0.702332	0.000095
 350	1.7450e+01	7.0121	-4.198072	0.000231	2.305254	0.781041	0.000105
 351	1.7500e+01	7.0057	-4.146747	-0.000225	-2.251643	-0.762877	0.000103
 352	1.7550e+01	7.0490	-4.101125	0.000200	2.001461	0.678113	0.000091
 353	1.7600e+01	7.0666	-4.053466	0.000209	2.090812	0.708386	0.000095
 354	1.7650e+01	7.0715	-4.000104	0.000234	2.340994	0.793150	0.000107
 355	1.7700e+01	7.0859	-3.949186	0.000223	2.233773	0.756823	0.000102
 356	1.7750e+01	7.1132	-3.900305	0.000214	2.144422	0.726550	0.000098
 357	1.7800e+01	7.1629	-3.848572	0.000227	2.269514	0.768932	0.000103
 358	1.7850e+01	7.1677	-3.800506	0.000211	2.108682	0.714441	0.000096
 359	1.7900e+01	7.1854	-3.752032	0.000213	2.126552	0.720495	0.000097
 360	1.7950e+01	7.2078	-3.697856	0.000238	2.376735	0.805260	0.000108
 361	1.8000e+01	7.2303	-3.651419	0.000204	2.037201	0.690222	0.000093
 362	1.8050e+01	7.2592	-3.599686	0.000227	2.269514	0.768932	0.000103
 363	1.8100e+01	7.2640	-3.559359	0.000177	1.769148	0.599404	0.000081
 364	1.8150e+01	7.2944	-3.506812	0.000231	2.305254	0.781041	0.000105
 365	1.8200e+01	7.2977	-3.452635	0.000238	2.376735	0.805260	0.000108
 366	1.8250e+01	7.3249	-3.402940	0.000218	2.180163	0.738659	0.000099
 367	1.8300e+01	7.3618	-3.354873	0.000211	2.108682	0.714441	0.000096
 368	1.8350e+01	7.3538	-3.301919	-0.000232	-2.323124	-0.787096	0.000106
 369	1.8400e+01	7.3811	-3.256704	0.000198	1.983591	0.672059	0.000090
 370	1.8450e+01	7.4067	-3.211081	0.000200	2.001461	0.678113	0.000091
 371	1.8500e+01	7.4276	-3.160978	0.000220	2.198033	0.744714	0.000100
 372	1.8550e+01	7.4388	-3.112097	0.000214	2.144422	0.726550	0.000098
 373	1.8600e+01	7.4436	-3.061994	0.000220	2.198033	0.744714	0.000100
 374	1.8650e+01	7.4934	-3.011483	0.000222	2.215903	0.750768	0.000101
 375	1.8700e+01	7.4982	-2.963824	0.000209	2.090812	0.708386	0.000095
 376	1.8750e+01	7.5142	-2.910463	0.000234	2.340994	0.793150	0.000107
 377	1.8800e+01	7.5640	-2.862396	0.000211	2.108682	0.714441	0.000096
 378	1.8850e+01	7.5768	-2.815959	0.000204	2.037201	0.690222	0.000093
 379	1.8900e+01	7.5607	-2.771559	-0.000195	-1.947850	-0.659950	0.000089
 380	1.8950e+01	7.5944	-2.720234	0.000225	2.251643	0.762877	0.000103
 381	1.9000e+01	7.6201	-2.666872	0.000234	2.340994	0.793150	0.000107
 382	1.9050e+01	7.6634	-2.615139	0.000227	2.269514	0.768932	0.000103
 383	1.9100e+01	7.6811	-2.566665	0.000213	2.126552	0.720495	0.000097
 384	1.9150e+01	7.6843	-2.519414	0.000207	2.072942	0.702332	0.000095
 385	1.9200e+01	7.6987	-2.470940	0.000213	2.126552	0.720495	0.000097
 386	1.9250e+01	7.7276	-2.420429	0.000222	2.215903	0.750768	0.000101
 387	1.9300e+01	7.7388	-2.371141	0.000216	2.162293	0.732605	0.000099
 388	1.9350e+01	7.7533	-2.327555	0.000191	1.912110	0.647840	0.000087
 389	1.9400e+01	7.7693	-2.278674	0.000214	2.144422	0.726550	0.000098
 390	1.9450e+01	7.8206	-2.228571	0.000220	2.198033	0.744714	0.000100
 391	1.9500e+01	7.8303	-2.178875	0.000218	2.180163	0.738659	0.000099
 392	1.9550e+01	7.8623	-2.131624	0.000207	2.072942	0.702332	0.000095
 393	1.9600e+01	7.8704	-2.079891	0.000227	2.269514	0.768932	0.000103
 394	1.9650e+01	7.8639	-2.032639	-0.000207	-2.072942	-0.702332	0.000095
 395	1.9700e+01	7.9105	-1.987424	0.000198	1.983591	0.672059	0.000090
 396	1.9750e+01	7.8864	-1.940173	-0.000207	-2.072942	-0.702332	0.000095
 397	1.9800e+01	7.9313	-1.890069	0.000220	2.198033	0.744714	0.000100
 398	1.9850e+01	7.9602	-1.841188	0.000214	2.144422	0.726550	0.000098
 399	1.9900e+01	7.9843	-1.794751	0.000204	2.037201	0.690222	0.000093
 400	1.9950e+01	8.0147	-1.746278	0.000213	2.126552	0.720495	0.000097
 401	2.0000e+01	8.0260	-1.697396	0.000214	2.144422	0.726550	0.000098
 402	2.0050e+01	8.0420	-1.648108	0.000216	2.162293	0.732605	0.000099
 403	2.0100e+01	8.0645	-1.598005	0.000220	2.198033	0.744714	0.000100
 404	2.0150e+01	8.0901	-1.550753	0.000207	2.072942	0.702332	0.000095
 405	2.0200e+01	8.1014	-1.504316	0.000204	2.037201	0.690222	0.000093
 406	2.0250e+01	8.1254	-1.457472	0.000206	2.055071	0.696277	0.000094
 407	2.0300e+01	8.1431	-1.408998	0.000213	2.126552	0.720495	0.000097
 408	2.0350e+01	8.1639	-1.360931	0.000211	2.108682	0.714441	0.000096
 409	2.0400e+01	8.2057	-1.307977	0.000232	2.323124	0.787096	0.000106
 410	2.0450e+01	8.2105	-1.262762	0.000198	1.983591	0.672059	0.000090
 411	2.0500e+01	8.2249	-1.215103	0.000209	2.090812	0.708386	0.000095
 412	2.0550e+01	8.2377	-1.170295	0.000197	1.965720	0.666004	0.000090
 413	2.0600e+01	8.2682	-1.117341	0.000232	2.323124	0.787096	0.000106
 414	2.0650e+01	8.2618	-1.070089	-0.000207	-2.072942	-0.702332	0.000095
 415	2.0700e+01	8.2891	-1.017542	0.000231	2.305254	0.781041	0.000105
 416	2.0750e+01	8.3035	-0.973956	0.000191	1.912110	0.647840	0.000087
 417	2.0800e+01	8.3147	-0.925890	0.000211	2.108682	0.714441	0.000096
 418	2.0850e+01	8.3645	-0.878638	0.000207	2.072942	0.702332	0.000095
 419	2.0900e+01	8.3709	-0.834645	0.000193	1.929980	0.653895	0.000088
 420	2.0950e+01	8.4014	-0.782912	0.000227	2.269514	0.768932	0.000103
 421	2.1000e+01	8.4238	-0.738105	0.000197	1.965720	0.666004	0.000090
 422	2.1050e+01	8.4286	-0.690446	0.000209	2.090812	0.708386	0.000095
 423	2.1100e+01	8.4607	-0.644416	0.000202	2.019331	0.684168	0.000092
 424	2.1150e+01	8.4896	-0.594313	0.000220	2.198033	0.744714	0.000100
 425	2.1200e+01	8.5201	-0.548690	0.000200	2.001461	0.678113	0.000091
 426	2.1250e+01	8.5265	-0.495736	0.000232	2.323124	0.787096	0.000106
 427	2.1300e+01	8.5233	-0.452558	-0.000189	-1.894240	-0.641786	0.000086
 428	2.1350e+01	8.5650	-0.402862	0.000218	2.180163	0.738659	0.000099
 429	2.1400e+01	8.5682	-0.355610	0.000207	2.072942	0.702332	0.000095
 430	2.1450e+01	8.6131	-0.305100	0.000222	2.215903	0.750768	0.000101
 431	2.1500e+01	8.6035	-0.261514	-0.000191	-1.912110	-0.647840	0.000087
 432	2.1550e+01	8.6532	-0.216706	0.000197	1.965720	0.666004	0.000090
 433	2.1600e+01	8.6484	-0.163752	-0.000232	-2.323124	-0.787096	0.000106
 434	2.1650e+01	8.7014	-0.115685	0.000211	2.108682	0.714441	0.000096
 435	2.1700e+01	8.6901	-0.067619	-0.000211	-2.108682	-0.714441	0.000096
 436	2.1750e+01	8.7206	-0.014257	0.000234	2.340994	0.793150	0.000107
 437	2.1800e+01	8.7383	0.031365	0.000200	2.001461	0.678113	0.000091
 438	2.1850e+01	8.7703	0.080246	0.000214	2.144422	0.726550	0.000098
 439	2.1900e+01	8.7896	0.129128	0.000214	2.144422	0.726550	0.000098
 440	2.1950e+01	8.7960	0.178416	0.000216	2.162293	0.732605	0.000099
 441	2.2000e+01	8.8121	0.228519	0.000220	2.198033	0.744714	0.000100
 442	2.2050e+01	8.8554	0.276993	0.000213	2.126552	0.720495	0.000097
 443	2.2100e+01	8.8538	0.324245	-0.000207	-2.072942	-0.702332	0.000095
 444	2.2150e+01	8.8907	0.371496	0.000207	2.072942	0.702332	0.000095
 445	2.2200e+01	8.9067	0.419563	0.000211	2.108682	0.714441	0.000096
 446	2.2250e+01	8.9195	0.470888	0.000225	2.251643	0.762877	0.000103
 447	2.2300e+01	8.9436	0.521398	0.000222	2.215903	0.750768	0.000101
 448	2.2350e+01	8.9532	0.566206	0.000197	1.965720	0.666004	0.000090
 449	2.2400e+01	8.9981	0.610199	0.000193	1.929980	0.653895	0.000088
 450	2.2450e+01	9.0078	0.662339	0.000229	2.287384	0.774987	0.000104
 451	2.2500e+01	9.0302	0.706739	0.000195	1.947850	0.659950	0.000089
 452	2.2550e+01	9.0399	0.755620	0.000214	2.144422	0.726550	0.000098
 453	2.2600e+01	9.0479	0.802465	0.000206	2.055071	0.696277	0.000094
 454	2.2650e+01	9.0687	0.848495	0.000202	2.019331	0.684168	0.000092
 455	2.2700e+01	9.0960	0.896561	0.000211	2.108682	0.714441	0.000096
 456	2.2750e+01	9.1185	0.947479	0.000223	2.233773	0.756823	0.000102
 457	2.2800e+01	9.1489	0.990657	0.000189	1.894240	0.641786	0.000086
 458	2.2850e+01	9.1554	1.031391	0.000179	1.787019	0.605458	0.000081
 459	2.2900e+01	9.1987	1.079458	0.000211	2.108682	0.714441	0.000096
 460	2.2950e+01	9.1826	1.125487	-0.000202	-2.019331	-0.684168	0.000092
 461	2.3000e+01	9.2532	1.172332	0.000206	2.055071	0.696277	0.000094
 462	2.3050e+01	9.2548	1.222028	0.000218	2.180163	0.738659	0.000099
 463	2.3100e+01	9.2436	1.267243	-0.000198	-1.983591	-0.672059	0.000090
 464	2.3150e+01	9.2757	1.307162	0.000175	1.751278	0.593349	0.000080
 465	2.3200e+01	9.2997	1.356043	0.000214	2.144422	0.726550	0.000098
 466	2.3250e+01	9.3511	1.403295	0.000207	2.072942	0.702332	0.000095
 467	2.3300e+01	9.3463	1.450547	-0.000207	-2.072942	-0.702332	0.000095
 468	2.3350e+01	9.3414	1.493725	-0.000189	-1.894240	-0.641786	0.000086
 469	2.3400e+01	9.3735	1.536089	0.000186	1.858499	0.629677	0.000085
 470	2.3450e+01	9.4056	1.582933	0.000206	2.055071	0.696277	0.000094
 471	2.3500e+01	9.3864	1.626111	-0.000189	-1.894240	-0.641786	0.000086
 472	2.3550e+01	9.4537	1.677029	0.000223	2.233773	0.756823	0.000102
 473	2.3600e+01	9.4778	1.724281	0.000207	2.072942	0.702332	0.000095
 474	2.3650e+01	9.4842	1.767459	0.000189	1.894240	0.641786	0.000086
 475	2.3700e+01	9.5035	1.807379	0.000175	1.751278	0.593349	0.000080
 476	2.3750e+01	9.5259	1.855853	0.000213	2.126552	0.720495	0.000097
 477	2.3800e+01	9.5484	1.901475	0.000200	2.001461	0.678113	0.000091
 478	2.3850e+01	9.5692	1.947097	0.000200	2.001461	0.678113	0.000091
 479	2.3900e+01	9.5821	1.992312	0.000198	1.983591	0.672059	0.000090
 480	2.3950e+01	9.6029	2.037527	0.000198	1.983591	0.672059	0.000090
 481	2.4000e+01	9.5805	2.087631	-0.000220	-2.198033	-0.744714	0.000100
 482	2.4050e+01	9.6687	2.133660	0.000202	2.019331	0.684168	0.000092
 483	2.4100e+01	9.6639	2.178468	-0.000197	-1.965720	-0.666004	0.000090
 484	2.4150e+01	9.6960	2.221646	0.000189	1.894240	0.641786	0.000086
 485	2.4200e+01	9.6864	2.263195	-0.000182	-1.822759	-0.617567	0.000083
 486	2.4250e+01	9.7152	2.303522	0.000177	1.769148	0.599404	0.000081
 487	2.4300e+01	9.7457	2.349552	0.000202	2.019331	0.684168	0.000092
 488	2.4350e+01	9.7457	2.395989	-0.000204	-2.037201	-0.690222	0.000093
 489	2.4400e+01	9.7938	2.444055	0.000211	2.108682	0.714441	0.000096
 490	2.4450e+01	9.7906	2.490085	-0.000202	-2.019331	-0.684168	0.000092
 491	2.4500e+01	9.8131	2.535707	0.000200	2.001461	0.678113	0.000091
 492	2.4550e+01	9.8404	2.580922	0.000198	1.983591	0.672059	0.000090
 493	2.4600e+01	9.8436	2.625323	0.000195	1.947850	0.659950	0.000089
 494	2.4650e+01	9.8724	2.672167	0.000206	2.055071	0.696277	0.000094
 495	2.4700e+01	9.8933	2.712494	0.000177	1.769148	0.599404	0.000081
 496	2.4750e+01	9.9077	2.762190	0.000218	2.180163	0.738659	0.000099
 497	2.4800e+01	9.9478	2.806590	0.000195	1.947850	0.659950	0.000089
 498	2.4850e+01	9.9527	2.856693	0.000220	2.198033	0.744714	0.000100
 499	2.4900e+01	9.9767	2.901094	0.000195	1.947850	0.659950	0.000089
 500	2.4950e+01	9.9815	2.949975	0.000214	2.144422	0.726550	0.000098
 501	2.5000e+01	10.0393	2.989080	0.000172	1.715538	0.581240	0.000078
 502	2.5050e+01	10.0377	3.034702	-0.000200	-2.001461	-0.678113	0.000091
 503	2.5100e+01	10.0682	3.079510	0.000197	1.965720	0.666004	0.000090
 504	2.5150e+01	10.0842	3.127576	0.000211	2.108682	0.714441	0.000096
 505	2.5200e+01	10.0922	3.172384	0.000197	1.965720	0.666004	0.000090
 506	2.5250e+01	10.1291	3.216377	0.000193	1.929980	0.653895	0.000088
 507	2.5300e+01	10.1388	3.266073	0.000218	2.180163	0.738659	0.000099
 508	2.5350e+01	10.1596	3.309658	0.000191	1.912110	0.647840	0.000087
 509	2.5400e+01	10.2077	3.355688	0.000202	2.019331	0.684168	0.000092
 510	2.5450e+01	10.2093	3.402532	0.000206	2.055071	0.696277	0.000094
 511	2.5500e+01	10.2206	3.441230	0.000170	1.697668	0.575185	0.000077
 512	2.5550e+01	10.2222	3.490926	0.000218	2.180163	0.738659	0.000099
 513	2.5600e+01	10.2478	3.536141	0.000198	1.983591	0.672059	0.000090
 514	2.5650e+01	10.2783	3.587466	0.000225	2.251643	0.762877	0.000103
 515	2.5700e+01	10.3056	3.626978	0.000173	1.733408	0.587295	0.000079
 516	2.5750e+01	10.3377	3.677081	0.000220	2.198033	0.744714	0.000100
 517	2.5800e+01	10.3345	3.719445	-0.000186	-1.858499	-0.629677	0.000085
 518	2.5850e+01	10.3649	3.764253	0.000197	1.965720	0.666004	0.000090
 519	2.5900e+01	10.3986	3.809060	0.000197	1.965720	0.666004	0.000090
 520	2.5950e+01	10.4163	3.849794	0.000179	1.787019	0.605458	0.000081
 521	2.6000e+01	10.4083	3.898268	-0.000213	-2.126552	-0.720495	0.000097
 522	2.6050e+01	10.4163	3.943483	0.000198	1.983591	0.672059	0.000090
 523	2.6100e+01	10.4580	3.986254	0.000188	1.876370	0.635731	0.000086
 524	2.6150e+01	10.4740	4.033099	0.000206	2.055071	0.696277	0.000094
 525	2.6200e+01	10.5013	4.080350	0.000207	2.072942	0.702332	0.000095
 526	2.6250e+01	10.5238	4.124343	0.000193	1.929980	0.653895	0.000088
 527	2.6300e+01	10.5286	4.165892	0.000182	1.822759	0.617567	0.000083
 528	2.6350e+01	10.5478	4.211515	0.000200	2.001461	0.678113	0.000091
 529	2.6400e+01	10.5655	4.259988	0.000213	2.126552	0.720495	0.000097
 530	2.6450e+01	10.5976	4.305203	0.000198	1.983591	0.672059	0.000090
 531	2.6500e+01	10.5960	4.354492	-0.000216	-2.162293	-0.732605	0.000099
 532	2.6550e+01	10.6216	4.392375	0.000166	1.661927	0.563076	0.000076
 533	2.6600e+01	10.6617	4.440441	0.000211	2.108682	0.714441	0.000096
 534	2.6650e+01	10.7002	4.483619	0.000189	1.894240	0.641786	0.000086
 535	2.6700e+01	10.6938	4.529649	-0.000202	-2.019331	-0.684168	0.000092
 536	2.6750e+01	10.7050	4.568347	0.000170	1.697668	0.575185	0.000077
 537	2.6800e+01	10.7371	4.619672	0.000225	2.251643	0.762877	0.000103
 538	2.6850e+01	10.7612	4.659591	0.000175	1.751278	0.593349	0.000080
 539	2.6900e+01	10.7837	4.703177	0.000191	1.912110	0.647840	0.000087
 540	2.6950e+01	10.8045	4.750021	0.000206	2.055071	0.696277	0.000094
 541	2.7000e+01	10.8270	4.798903	0.000214	2.144422	0.726550	0.000098
 542	2.7050e+01	10.8382	4.840044	0.000180	1.804889	0.611513	0.000082
 543	2.7100e+01	10.8542	4.883630	0.000191	1.912110	0.647840	0.000087
 544	2.7150e+01	10.8783	4.926401	0.000188	1.876370	0.635731	0.000086
 545	2.7200e+01	10.9024	4.969986	0.000191	1.912110	0.647840	0.000087
 546	2.7250e+01	10.9232	5.015609	0.000200	2.001461	0.678113	0.000091
 547	2.7300e+01	10.9457	5.060417	0.000197	1.965720	0.666004	0.000090
 548	2.7350e+01	10.9569	5.104002	0.000191	1.912110	0.647840	0.000087
 549	2.7400e+01	10.9826	5.149625	0.000200	2.001461	0.678113	0.000091
 550	2.7450e+01	11.0050	5.189544	0.000175	1.751278	0.593349	0.000080
 551	2.7500e+01	11.0098	5.236388	0.000206	2.055071	0.696277	0.000094
 552	2.7550e+01	11.0259	5.282011	0.000200	2.001461	0.678113	0.000091
 553	2.7600e+01	11.0660	5.333336	0.000225	2.251643	0.762877	0.000103
 554	2.7650e+01	11.0740	5.368775	0.000155	1.554706	0.526749	0.000071
 555	2.7700e+01	11.1045	5.408694	0.000175	1.751278	0.593349	0.000080
 556	2.7750e+01	11.1061	5.458390	0.000218	2.180163	0.738659	0.000099
 557	2.7800e+01	11.1462	5.499124	0.000179	1.787019	0.605458	0.000081
 558	2.7850e+01	11.1542	5.545969	0.000206	2.055071	0.696277	0.000094
 559	2.7900e+01	11.1751	5.590369	0.000195	1.947850	0.659950	0.000089
 560	2.7950e+01	11.2104	5.634362	0.000193	1.929980	0.653895	0.000088
 561	2.8000e+01	11.2136	5.679170	0.000197	1.965720	0.666004	0.000090
 562	2.8050e+01	11.2457	5.725200	0.000202	2.019331	0.684168	0.000092
 563	2.8100e+01	11.2569	5.766341	0.000180	1.804889	0.611513	0.000082
 564	2.8150e+01	11.2842	5.811556	0.000198	1.983591	0.672059	0.000090
 565	2.8200e+01	11.3002	5.855957	0.000195	1.947850	0.659950	0.000089
 566	2.8250e+01	11.3451	5.900764	0.000197	1.965720	0.666004	0.000090
 567	2.8300e+01	11.3467	5.947201	0.000204	2.037201	0.690222	0.000093
 568	2.8350e+01	11.3660	5.994453	0.000207	2.072942	0.702332	0.000095
 569	2.8400e+01	11.3740	6.034373	0.000175	1.751278	0.593349	0.000080
 570	2.8450e+01	11.3997	6.079588	0.000198	1.983591	0.672059	0.000090
 571	2.8500e+01	11.4157	6.119914	0.000177	1.769148	0.599404	0.000081
 572	2.8550e+01	11.4526	6.164722	0.000197	1.965720	0.666004	0.000090
 573	2.8600e+01	11.4446	6.208715	-0.000193	-1.929980	-0.653895	0.000088
 574	2.8650e+01	11.4927	6.254338	0.000200	2.001461	0.678113	0.000091
 575	2.8700e+01	11.4911	6.295886	-0.000182	-1.822759	-0.617567	0.000083
 576	2.8750e+01	11.5168	6.343138	0.000207	2.072942	0.702332	0.000095
 577	2.8800e+01	11.5376	6.384280	0.000180	1.804889	0.611513	0.000082
 578	2.8850e+01	11.5649	6.431124	0.000206	2.055071	0.696277	0.000094
 579	2.8900e+01	11.5842	6.477561	0.000204	2.037201	0.690222	0.000093
 580	2.8950e+01	11.6227	6.517073	0.000173	1.733408	0.587295	0.000079
 581	2.9000e+01	11.6162	6.557808	-0.000179	-1.787019	-0.605458	0.000081
 582	2.9050e+01	11.6339	6.606282	0.000213	2.126552	0.720495	0.000097
 583	2.9100e+01	11.6548	6.647423	0.000180	1.804889	0.611513	0.000082
 584	2.9150e+01	11.6997	6.691823	0.000195	1.947850	0.659950	0.000089
 585	2.9200e+01	11.6916	6.731743	-0.000175	-1.751278	-0.593349	0.000080
 586	2.9250e+01	11.7109	6.776551	0.000197	1.965720	0.666004	0.000090
 587	2.9300e+01	11.7670	6.824210	0.000209	2.090812	0.708386	0.000095
 588	2.9350e+01	11.7574	6.871869	-0.000209	-2.090812	-0.708386	0.000095
 589	2.9400e+01	11.7783	6.910974	0.000172	1.715538	0.581240	0.000078
 590	2.9450e+01	11.8152	6.952930	0.000184	1.840629	0.623622	0.000084
 591	2.9500e+01	11.8168	6.993257	0.000177	1.769148	0.599404	0.000081
 592	2.9550e+01	11.8264	7.038472	0.000198	1.983591	0.672059	0.000090
 593	2.9600e+01	11.8633	7.083687	0.000198	1.983591	0.672059	0.000090
 594	2.9650e+01	11.8938	7.128902	0.000198	1.983591	0.672059	0.000090
 595	2.9700e+01	11.9178	7.172895	0.000193	1.929980	0.653895	0.000088
 596	2.9750e+01	11.9130	7.214444	-0.000182	-1.822759	-0.617567	0.000083
 597	2.9800e+01	11.9355	7.258030	0.000191	1.912110	0.647840	0.000087
 598	2.9850e+01	11.9708	7.302023	0.000193	1.929980	0.653895	0.000088
 599	2.9900e+01	11.9852	7.345201	0.000189	1.894240	0.641786	0.000086
 600	2.9950e+01	12.0237	7.383491	0.000168	1.679798	0.569131	0.000077
 601	3.0000e+01	12.0253	7.422596	0.000172	1.715538	0.581240	0.000078
 602	3.0050e+01	12.0366	7.469033	0.000204	2.037201	0.690222	0.000093
 603	3.0100e+01	12.0590	7.513026	0.000193	1.929980	0.653895	0.000088
 604	3.0150e+01	12.0719	7.556612	0.000191	1.912110	0.647840	0.000087
 605	3.0200e+01	12.1120	7.598975	0.000186	1.858499	0.629677	0.000085
 606	3.0250e+01	12.1184	7.635636	0.000161	1.608317	0.544912	0.000073
 607	3.0300e+01	12.1344	7.677592	0.000184	1.840629	0.623622	0.000084
 608	3.0350e+01	12.1601	7.721993	0.000195	1.947850	0.659950	0.000089
 609	3.0400e+01	12.1745	7.760690	0.000170	1.697668	0.575185	0.000077
 610	3.0450e+01	12.1874	7.804276	0.000191	1.912110	0.647840	0.000087
 611	3.0500e+01	12.2307	7.844603	0.000177	1.769148	0.599404	0.000081
 612	3.0550e+01	12.2595	7.887374	0.000188	1.876370	0.635731	0.000086
 613	3.0600e+01	12.2499	7.928515	-0.000180	-1.804889	-0.611513	0.000082
 614	3.0650e+01	12.2708	7.972508	0.000193	1.929980	0.653895	0.000088
 615	3.0700e+01	12.3157	8.011613	0.000172	1.715538	0.581240	0.000078
 616	3.0750e+01	12.3173	8.054792	0.000189	1.894240	0.641786	0.000086
 617	3.0800e+01	12.2884	8.093489	-0.000170	-1.697668	-0.575185	0.000077
 618	3.0850e+01	12.3638	8.135038	0.000182	1.822759	0.617567	0.000083
 619	3.0900e+01	12.3927	8.178216	0.000189	1.894240	0.641786	0.000086
 620	3.0950e+01	12.3927	8.225875	-0.000209	-2.090812	-0.708386	0.000095
 621	3.1000e+01	12.4103	8.272313	0.000204	2.037201	0.690222	0.000093
 622	3.1050e+01	12.4617	8.315084	0.000188	1.876370	0.635731	0.000086
 623	3.1100e+01	12.4777	8.359076	0.000193	1.929980	0.653895	0.000088
 624	3.1150e+01	12.4857	8.398589	0.000173	1.733408	0.587295	0.000079
 625	3.1200e+01	12.4986	8.434435	0.000157	1.572576	0.532803	0.000072
 626	3.1250e+01	12.5098	8.484131	0.000218	2.180163	0.738659	0.000099
 627	3.1300e+01	12.5483	8.530568	0.000204	2.037201	0.690222	0.000093
 628	3.1350e+01	12.5676	8.575783	0.000198	1.983591	0.672059	0.000090
 629	3.1400e+01	12.5900	8.617332	0.000182	1.822759	0.617567	0.000083
 630	3.1450e+01	12.5932	8.662547	0.000198	1.983591	0.672059	0.000090
 631	3.1500e+01	12.6157	8.702874	0.000177	1.769148	0.599404	0.000081
 632	3.1550e+01	12.6381	8.746867	0.000193	1.929980	0.653895	0.000088
 633	3.1600e+01	12.6638	8.785564	0.000170	1.697668	0.575185	0.000077
 634	3.1650e+01	12.6799	8.828335	0.000188	1.876370	0.635731	0.000086
 635	3.1700e+01	12.6959	8.874365	0.000202	2.019331	0.684168	0.000092
 636	3.1750e+01	12.7328	8.920802	0.000204	2.037201	0.690222	0.000093
 637	3.1800e+01	12.7472	8.959499	0.000170	1.697668	0.575185	0.000077
 638	3.1850e+01	12.7440	9.001456	-0.000184	-1.840629	-0.623622	0.000084
 639	3.1900e+01	12.7857	9.041783	0.000177	1.769148	0.599404	0.000081
 640	3.1950e+01	12.7954	9.089034	0.000207	2.072942	0.702332	0.000095
 641	3.2000e+01	12.8258	9.132620	0.000191	1.912110	0.647840	0.000087
 642	3.2050e+01	12.8579	9.174169	0.000182	1.822759	0.617567	0.000083
 643	3.2100e+01	12.8611	9.216533	0.000186	1.858499	0.629677	0.000085
 644	3.2150e+01	12.8916	9.259711	0.000189	1.894240	0.641786	0.000086
 645	3.2200e+01	12.9044	9.297594	0.000166	1.661927	0.563076	0.000076
 646	3.2250e+01	12.9221	9.344845	0.000207	2.072942	0.702332	0.000095
 647	3.2300e+01	12.9141	9.384358	-0.000173	-1.733408	-0.587295	0.000079
 648	3.2350e+01	12.9686	9.433646	0.000216	2.162293	0.732605	0.000099
 649	3.2400e+01	12.9558	9.468678	-0.000154	-1.536836	-0.520694	0.000070
 650	3.2450e+01	13.0055	9.513078	0.000195	1.947850	0.659950	0.000089
 651	3.2500e+01	13.0039	9.553812	-0.000179	-1.787019	-0.605458	0.000081
 652	3.2550e+01	13.0440	9.599027	0.000198	1.983591	0.672059	0.000090
 653	3.2600e+01	13.0440	9.642206	-0.000189	-1.894240	-0.641786	0.000086
 654	3.2650e+01	13.0745	9.680088	0.000166	1.661927	0.563076	0.000076
 655	3.2700e+01	13.1162	9.730599	0.000222	2.215903	0.750768	0.000101
 656	3.2750e+01	13.1146	9.772148	-0.000182	-1.822759	-0.617567	0.000083
 657	3.2800e+01	13.1499	9.815326	0.000189	1.894240	0.641786	0.000086
 658	3.2850e+01	13.1515	9.856875	0.000182	1.822759	0.617567	0.000083
 659	3.2900e+01	13.1740	9.895165	0.000168	1.679798	0.569131	0.000077
 660	3.2950e+01	13.2189	9.937529	0.000186	1.858499	0.629677	0.000085
 661	3.3000e+01	13.2044	9.981115	-0.000191	-1.912110	-0.647840	0.000087
 662	3.3050e+01	13.2285	10.025515	0.000195	1.947850	0.659950	0.000089
 663	3.3100e+01	13.2670	10.071545	0.000202	2.019331	0.684168	0.000092
 664	3.3150e+01	13.2686	10.116352	0.000197	1.965720	0.666004	0.000090
 665	3.3200e+01	13.2959	10.153013	0.000161	1.608317	0.544912	0.000073
 666	3.3250e+01	13.3232	10.199043	0.000202	2.019331	0.684168	0.000092
 667	3.3300e+01	13.3376	10.243443	0.000195	1.947850	0.659950	0.000089
 668	3.3350e+01	13.3504	10.276031	0.000143	1.429615	0.484367	0.000065
 669	3.3400e+01	13.3841	10.317987	0.000184	1.840629	0.623622	0.000084
 670	3.3450e+01	13.4002	10.363202	0.000198	1.983591	0.672059	0.000090
 671	3.3500e+01	13.4290	10.403529	0.000177	1.769148	0.599404	0.000081
 672	3.3550e+01	13.4194	10.449558	-0.000202	-2.019331	-0.684168	0.000092
 673	3.3600e+01	13.4322	10.492737	0.000189	1.894240	0.641786	0.000086
 674	3.3650e+01	13.4884	10.533064	0.000177	1.769148	0.599404	0.000081
 675	3.3700e+01	13.5092	10.571761	0.000170	1.697668	0.575185	0.000077
 676	3.3750e+01	13.5221	10.611681	0.000175	1.751278	0.593349	0.000080
 677	3.3800e+01	13.5494	10.653637	0.000184	1.840629	0.623622	0.000084
 678	3.3850e+01	13.5494	10.696001	-0.000186	-1.858499	-0.629677	0.000085
 679	3.3900e+01	13.5702	10.737957	0.000184	1.840629	0.623622	0.000084
 680	3.3950e+01	13.6087	10.783172	0.000198	1.983591	0.672059	0.000090
 681	3.4000e+01	13.6328	10.823092	0.000175	1.751278	0.593349	0.000080
 682	3.4050e+01	13.6392	10.863826	0.000179	1.787019	0.605458	0.000081
 683	3.4100e+01	13.6745	10.906597	0.000188	1.876370	0.635731	0.000086
 684	3.4150e+01	13.6793	10.951812	0.000198	1.983591	0.672059	0.000090
 685	3.4200e+01	13.7114	10.990917	0.000172	1.715538	0.581240	0.000078
 686	3.4250e+01	13.7258	11.034910	0.000193	1.929980	0.653895	0.000088
 687	3.4300e+01	13.7386	11.074015	0.000172	1.715538	0.581240	0.000078
 688	3.4350e+01	13.7611	11.116786	0.000188	1.876370	0.635731	0.000086
 689	3.4400e+01	13.7659	11.155483	0.000170	1.697668	0.575185	0.000077
 690	3.4450e+01	13.8012	11.201105	0.000200	2.001461	0.678113	0.000091
 691	3.4500e+01	13.8060	11.237359	0.000159	1.590447	0.538858	0.000073
 692	3.4550e+01	13.8574	11.280130	0.000188	1.876370	0.635731	0.000086
 693	3.4600e+01	13.8461	11.321679	-0.000182	-1.822759	-0.617567	0.000083
 694	3.4650e+01	13.8814	11.361191	0.000173	1.733408	0.587295	0.000079
 695	3.4700e+01	13.9039	11.405591	0.000195	1.947850	0.659950	0.000089
 696	3.4750e+01	13.9456	11.447548	0.000184	1.840629	0.623622	0.000084
 697	3.4800e+01	13.9424	11.489097	-0.000182	-1.822759	-0.617567	0.000083
 698	3.4850e+01	13.9312	11.530238	-0.000180	-1.804889	-0.611513	0.000082
 699	3.4900e+01	14.0146	11.567714	0.000164	1.644057	0.557022	0.000075
 700	3.4950e+01	14.0033	11.615373	-0.000209	-2.090812	-0.708386	0.000095
 701	3.5000e+01	14.0226	11.655292	0.000175	1.751278	0.593349	0.000080
 702	3.5050e+01	14.0402	11.696841	0.000182	1.822759	0.617567	0.000083
 703	3.5100e+01	14.0402	11.736354	-0.000173	-1.733408	-0.587295	0.000079
 704	3.5150e+01	14.0755	11.776681	0.000177	1.769148	0.599404	0.000081
 705	3.5200e+01	14.1124	11.813341	0.000161	1.608317	0.544912	0.000073
 706	3.5250e+01	14.1221	11.857334	0.000193	1.929980	0.653895	0.000088
 707	3.5300e+01	14.1558	11.902142	0.000197	1.965720	0.666004	0.000090
 708	3.5350e+01	14.1638	11.942062	0.000175	1.751278	0.593349	0.000080
 709	3.5400e+01	14.2023	11.984425	0.000186	1.858499	0.629677	0.000085
 710	3.5450e+01	14.2215	12.024752	0.000177	1.769148	0.599404	0.000081
 711	3.5500e+01	14.2167	12.073226	-0.000213	-2.126552	-0.720495	0.000097
 712	3.5550e+01	14.2392	12.104999	0.000139	1.393875	0.472257	0.000064
 713	3.5600e+01	14.2520	12.143289	0.000168	1.679798	0.569131	0.000077
 714	3.5650e+01	14.2680	12.190541	0.000207	2.072942	0.702332	0.000095
 715	3.5700e+01	14.2969	12.231682	0.000180	1.804889	0.611513	0.000082
 716	3.5750e+01	14.3194	12.271602	0.000175	1.751278	0.593349	0.000080
 717	3.5800e+01	14.3258	12.314780	0.000189	1.894240	0.641786	0.000086
 718	3.5850e+01	14.3787	12.355922	0.000180	1.804889	0.611513	0.000082
 719	3.5900e+01	14.3771	12.396656	-0.000179	-1.787019	-0.605458	0.000081
 720	3.5950e+01	14.4092	12.432909	0.000159	1.590447	0.538858	0.000073
 721	3.6000e+01	14.4108	12.478532	0.000200	2.001461	0.678113	0.000091
 722	3.6050e+01	14.4477	12.515193	0.000161	1.608317	0.544912	0.000073
 723	3.6100e+01	14.4461	12.560408	-0.000198	-1.983591	-0.672059	0.000090
 724	3.6150e+01	14.4814	12.599512	0.000172	1.715538	0.581240	0.000078
 725	3.6200e+01	14.5263	12.640654	0.000180	1.804889	0.611513	0.000082
 726	3.6250e+01	14.4846	12.682203	-0.000182	-1.822759	-0.617567	0.000083
 727	3.6300e+01	14.5440	12.726603	0.000195	1.947850	0.659950	0.000089
 728	3.6350e+01	14.5648	12.762042	0.000155	1.554706	0.526749	0.000071
 729	3.6400e+01	14.5745	12.794222	0.000141	1.411745	0.478312	0.000064
 730	3.6450e+01	14.5937	12.840252	0.000202	2.019331	0.684168	0.000092
 731	3.6500e+01	14.6081	12.880579	0.000177	1.769148	0.599404	0.000081
 732	3.6550e+01	14.6563	12.920091	0.000173	1.733408	0.587295	0.000079
 733	3.6600e+01	14.6691	12.962047	0.000184	1.840629	0.623622	0.000084
 734	3.6650e+01	14.6851	13.001560	0.000173	1.733408	0.587295	0.000079
 735	3.6700e+01	14.6980	13.045145	0.000191	1.912110	0.647840	0.000087
 736	3.6750e+01	14.7413	13.083843	0.000170	1.697668	0.575185	0.000077
 737	3.6800e+01	14.7573	13.124984	0.000180	1.804889	0.611513	0.000082
 738	3.6850e+01	14.7686	13.165311	0.000177	1.769148	0.599404	0.000081
 739	3.6900e+01	14.7525	13.199528	-0.000150	-1.501096	-0.508585	0.000068
 740	3.6950e+01	14.7830	13.241077	0.000182	1.822759	0.617567	0.000083
 741	3.7000e+01	14.8183	13.281404	0.000177	1.769148	0.599404	0.000081
 742	3.7050e+01	14.8424	13.320509	0.000172	1.715538	0.581240	0.000078
 743	3.7100e+01	14.8728	13.364909	0.000195	1.947850	0.659950	0.000089
 744	3.7150e+01	14.8953	13.408902	0.000193	1.929980	0.653895	0.000088
 745	3.7200e+01	14.9113	13.445970	0.000163	1.626187	0.550967	0.000074
 746	3.7250e+01	14.9129	13.487112	0.000180	1.804889	0.611513	0.000082
 747	3.7300e+01	14.9498	13.525809	0.000170	1.697668	0.575185	0.000077
 748	3.7350e+01	14.9691	13.564507	0.000170	1.697668	0.575185	0.000077
 749	3.7400e+01	14.9675	13.608500	-0.000193	-1.929980	-0.653895	0.000088
 750	3.7450e+01	14.9996	13.643531	0.000154	1.536836	0.520694	0.000070
 751	3.7500e+01	15.0092	13.684266	0.000179	1.787019	0.605458	0.000081
 752	3.7550e+01	15.0557	13.725407	0.000180	1.804889	0.611513	0.000082
 753	3.7600e+01	15.0589	13.767771	0.000186	1.858499	0.629677	0.000085
 754	3.7650e+01	15.0814	13.809727	0.000184	1.840629	0.623622	0.000084
 755	3.7700e+01	15.0974	13.844351	0.000152	1.518966	0.514640	0.000069
 756	3.7750e+01	15.1151	13.885493	0.000180	1.804889	0.611513	0.000082
 757	3.7800e+01	15.1343	13.927857	0.000186	1.858499	0.629677	0.000085
 758	3.7850e+01	15.1584	13.966147	0.000168	1.679798	0.569131	0.000077
 759	3.7900e+01	15.1809	14.006474	0.000177	1.769148	0.599404	0.000081
 760	3.7950e+01	15.1921	14.042320	0.000157	1.572576	0.532803	0.000072
 761	3.8000e+01	15.2129	14.082647	0.000177	1.769148	0.599404	0.000081
 762	3.8050e+01	15.2338	14.126640	0.000193	1.929980	0.653895	0.000088
 763	3.8100e+01	15.2675	14.168596	0.000184	1.840629	0.623622	0.000084
 764	3.8150e+01	15.2915	14.208108	0.000173	1.733408	0.587295	0.000079
 765	3.8200e+01	15.2932	14.247620	0.000173	1.733408	0.587295	0.000079
 766	3.8250e+01	15.3044	14.285503	0.000166	1.661927	0.563076	0.000076
 767	3.8300e+01	15.3429	14.325830	0.000177	1.769148	0.599404	0.000081
 768	3.8350e+01	15.3525	14.372267	0.000204	2.037201	0.690222	0.000093
 769	3.8400e+01	15.3766	14.410965	0.000170	1.697668	0.575185	0.000077
 770	3.8450e+01	15.4087	14.453328	0.000186	1.858499	0.629677	0.000085
 771	3.8500e+01	15.4103	14.493655	0.000177	1.769148	0.599404	0.000081
 772	3.8550e+01	15.4391	14.538463	0.000197	1.965720	0.666004	0.000090
 773	3.8600e+01	15.4536	14.572272	0.000148	1.483225	0.502530	0.000068
 774	3.8650e+01	15.4825	14.613414	0.000180	1.804889	0.611513	0.000082
 775	3.8700e+01	15.4985	14.659036	0.000200	2.001461	0.678113	0.000091
 776	3.8750e+01	15.5049	14.696512	0.000164	1.644057	0.557022	0.000075
 777	3.8800e+01	15.5306	14.738876	0.000186	1.858499	0.629677	0.000085
 778	3.8850e+01	15.5562	14.785313	0.000204	2.037201	0.690222	0.000093
 779	3.8900e+01	15.5835	14.827676	0.000186	1.858499	0.629677	0.000085
 780	3.8950e+01	15.5996	14.870447	0.000188	1.876370	0.635731	0.000086
 781	3.9000e+01	15.6349	14.906701	0.000159	1.590447	0.538858	0.000073
 782	3.9050e+01	15.6349	14.945806	-0.000172	-1.715538	-0.581240	0.000078
 783	3.9100e+01	15.6541	14.982466	0.000161	1.608317	0.544912	0.000073
 784	3.9150e+01	15.6734	15.021571	0.000172	1.715538	0.581240	0.000078
 785	3.9200e+01	15.6894	15.067194	0.000200	2.001461	0.678113	0.000091
 786	3.9250e+01	15.7311	15.105076	0.000166	1.661927	0.563076	0.000076
 787	3.9300e+01	15.7439	15.144181	0.000172	1.715538	0.581240	0.000078
 788	3.9350e+01	15.7873	15.179213	0.000154	1.536836	0.520694	0.000070
 789	3.9400e+01	15.7600	15.224021	-0.000197	-1.965720	-0.666004	0.000090
 790	3.9450e+01	15.8129	15.261089	0.000163	1.626187	0.550967	0.000074
 791	3.9500e+01	15.8033	15.301823	-0.000179	-1.787019	-0.605458	0.000081
 792	3.9550e+01	15.8418	15.331152	0.000129	1.286653	0.435930	0.000059
 793	3.9600e+01	15.8546	15.375959	0.000197	1.965720	0.666004	0.000090
 794	3.9650e+01	15.8659	15.412620	0.000161	1.608317	0.544912	0.000073
 795	3.9700e+01	15.9413	15.457835	0.000198	1.983591	0.672059	0.000090
 796	3.9750e+01	15.9236	15.490015	-0.000141	-1.411745	-0.478312	0.000064
 797	3.9800e+01	15.9316	15.528713	0.000170	1.697668	0.575185	0.000077
 798	3.9850e+01	15.9782	15.571076	0.000186	1.858499	0.629677	0.000085
 799	3.9900e+01	15.9782	15.604071	-0.000145	-1.447485	-0.490421	0.000066
 800	3.9950e+01	15.9926	15.646842	0.000188	1.876370	0.635731	0.000086
 801	4.0000e+01	16.0086	15.679022	0.000141	1.411745	0.478312	0.000064
 802	4.0050e+01	16.0391	15.719756	0.000179	1.787019	0.605458	0.000081
 803	4.0100e+01	16.0696	15.759676	0.000175	1.751278	0.593349	0.000080
 804	4.0150e+01	16.0840	15.798374	0.000170	1.697668	0.575185	0.000077
 805	4.0200e+01	16.1241	15.834220	0.000157	1.572576	0.532803	0.000072
 806	4.0250e+01	16.1306	15.876176	0.000184	1.840629	0.623622	0.000084
 807	4.0300e+01	16.1306	15.910393	-0.000150	-1.501096	-0.508585	0.000068
 808	4.0350e+01	16.1691	15.948276	0.000166	1.661927	0.563076	0.000076
 809	4.0400e+01	16.1610	15.987788	-0.000173	-1.733408	-0.587295	0.000079
 810	4.0450e+01	16.2060	16.022005	0.000150	1.501096	0.508585	0.000068
 811	4.0500e+01	16.2316	16.063961	0.000184	1.840629	0.623622	0.000084
 812	4.0550e+01	16.2316	16.103473	-0.000173	-1.733408	-0.587295	0.000079
 813	4.0600e+01	16.2557	16.143800	0.000177	1.769148	0.599404	0.000081
 814	4.0650e+01	16.2749	16.178424	0.000152	1.518966	0.514640	0.000069
 815	4.0700e+01	16.3118	16.215085	0.000161	1.608317	0.544912	0.000073
 816	4.0750e+01	16.3150	16.256227	0.000180	1.804889	0.611513	0.000082
 817	4.0800e+01	16.3359	16.291258	0.000154	1.536836	0.520694	0.000070
 818	4.0850e+01	16.3632	16.323845	0.000143	1.429615	0.484367	0.000065
 819	4.0900e+01	16.3760	16.362136	0.000168	1.679798	0.569131	0.000077
 820	4.0950e+01	16.4017	16.402463	0.000177	1.769148	0.599404	0.000081
 821	4.1000e+01	16.4177	16.446048	0.000191	1.912110	0.647840	0.000087
 822	4.1050e+01	16.4562	16.476192	0.000132	1.322394	0.448039	0.000060
 823	4.1100e+01	16.4626	16.515296	0.000172	1.715538	0.581240	0.000078
 824	4.1150e+01	16.4755	16.551550	0.000159	1.590447	0.538858	0.000073
 825	4.1200e+01	16.4979	16.590247	0.000170	1.697668	0.575185	0.000077
 826	4.1250e+01	16.5092	16.632204	0.000184	1.840629	0.623622	0.000084
 827	4.1300e+01	16.5220	16.671716	0.000173	1.733408	0.587295	0.000079
 828	4.1350e+01	16.5637	16.710821	0.000172	1.715538	0.581240	0.000078
 829	4.1400e+01	16.5830	16.747074	0.000159	1.590447	0.538858	0.000073
 830	4.1450e+01	16.5749	16.787809	-0.000179	-1.787019	-0.605458	0.000081
 831	4.1500e+01	16.6022	16.824062	0.000159	1.590447	0.538858	0.000073
 832	4.1550e+01	16.6295	16.870499	0.000204	2.037201	0.690222	0.000093
 833	4.1600e+01	16.6712	16.904309	0.000148	1.483225	0.502530	0.000068
 834	4.1650e+01	16.6760	16.942191	0.000166	1.661927	0.563076	0.000076
 835	4.1700e+01	16.6936	16.973149	0.000136	1.358134	0.460148	0.000062
 836	4.1750e+01	16.7081	17.018772	0.000200	2.001461	0.678113	0.000091
 837	4.1800e+01	16.7546	17.054211	0.000155	1.554706	0.526749	0.000071
 838	4.1850e+01	16.7450	17.099426	-0.000198	-1.983591	-0.672059	0.000090
 839	4.1900e+01	16.7674	17.131198	0.000139	1.393875	0.472257	0.000064
 840	4.1950e+01	16.8011	17.172747	0.000182	1.822759	0.617567	0.000083
 841	4.2000e+01	16.7931	17.214704	-0.000184	-1.840629	-0.623622	0.000084
 842	4.2050e+01	16.8396	17.247291	0.000143	1.429615	0.484367	0.000065
 843	4.2100e+01	16.8573	17.286396	0.000172	1.715538	0.581240	0.000078
 844	4.2150e+01	16.8958	17.323871	0.000164	1.644057	0.557022	0.000075
 845	4.2200e+01	16.9038	17.360125	0.000159	1.590447	0.538858	0.000073
 846	4.2250e+01	16.8990	17.402488	-0.000186	-1.858499	-0.629677	0.000085
 847	4.2300e+01	16.9343	17.438742	0.000159	1.590447	0.538858	0.000073
 848	4.2350e+01	16.9792	17.481920	0.000189	1.894240	0.641786	0.000086
 849	4.2400e+01	16.9664	17.522247	-0.000177	-1.769148	-0.599404	0.000081
 850	4.2450e+01	17.0097	17.557686	0.000155	1.554706	0.526749	0.000071
 851	4.2500e+01	17.0097	17.595569	-0.000166	-1.661927	-0.563076	0.000076
 852	4.2550e+01	17.0450	17.627342	0.000139	1.393875	0.472257	0.000064
 853	4.2600e+01	17.0674	17.665632	0.000168	1.679798	0.569131	0.000077
 854	4.2650e+01	17.0883	17.706366	0.000179	1.787019	0.605458	0.000081
 855	4.2700e+01	17.0883	17.738139	-0.000139	-1.393875	-0.472257	0.000064
 856	4.2750e+01	17.1268	17.783354	0.000198	1.983591	0.672059	0.000090
 857	4.2800e+01	17.1396	17.819607	0.000159	1.590447	0.538858	0.000073
 858	4.2850e+01	17.1653	17.864415	0.000197	1.965720	0.666004	0.000090
 859	4.2900e+01	17.1781	17.901890	0.000164	1.644057	0.557022	0.000075
 860	4.2950e+01	17.2230	17.938551	0.000161	1.608317	0.544912	0.000073
 861	4.3000e+01	17.2198	17.969509	-0.000136	-1.358134	-0.460148	0.000062
 862	4.3050e+01	17.2375	18.011873	0.000186	1.858499	0.629677	0.000085
 863	4.3100e+01	17.2664	18.045682	0.000148	1.483225	0.502530	0.000068
 864	4.3150e+01	17.2696	18.090897	0.000198	1.983591	0.672059	0.000090
 865	4.3200e+01	17.2696	18.126744	-0.000157	-1.572576	-0.532803	0.000072
 866	4.3250e+01	17.3113	18.165441	0.000170	1.697668	0.575185	0.000077
 867	4.3300e+01	17.3402	18.200473	0.000154	1.536836	0.520694	0.000070
 868	4.3350e+01	17.3642	18.240392	0.000175	1.751278	0.593349	0.000080
 869	4.3400e+01	17.3626	18.274609	-0.000150	-1.501096	-0.508585	0.000068
 870	4.3450e+01	17.3995	18.315750	0.000180	1.804889	0.611513	0.000082
 871	4.3500e+01	17.4139	18.349153	0.000147	1.465355	0.496476	0.000067
 872	4.3550e+01	17.4172	18.389479	0.000177	1.769148	0.599404	0.000081
 873	4.3600e+01	17.4621	18.430214	0.000179	1.787019	0.605458	0.000081
 874	4.3650e+01	17.4669	18.468504	0.000168	1.679798	0.569131	0.000077
 875	4.3700e+01	17.5086	18.502721	0.000150	1.501096	0.508585	0.000068
 876	4.3750e+01	17.5230	18.538160	0.000155	1.554706	0.526749	0.000071
 877	4.3800e+01	17.5503	18.574006	0.000157	1.572576	0.532803	0.000072
 878	4.3850e+01	17.5647	18.611481	0.000164	1.644057	0.557022	0.000075
 879	4.3900e+01	17.5984	18.653030	0.000182	1.822759	0.617567	0.000083
 880	4.3950e+01	17.5968	18.692542	-0.000173	-1.733408	-0.587295	0.000079
 881	4.4000e+01	17.6305	18.730425	0.000166	1.661927	0.563076	0.000076
 882	4.4050e+01	17.6369	18.760976	0.000134	1.340264	0.454094	0.000061
 883	4.4100e+01	17.6770	18.803340	0.000186	1.858499	0.629677	0.000085
 884	4.4150e+01	17.6658	18.839593	-0.000159	-1.590447	-0.538858	0.000073
 885	4.4200e+01	17.7107	18.878698	0.000172	1.715538	0.581240	0.000078
 886	4.4250e+01	17.7123	18.919025	0.000177	1.769148	0.599404	0.000081
 887	4.4300e+01	17.7107	18.952020	-0.000145	-1.447485	-0.490421	0.000066
 888	4.4350e+01	17.7669	18.987866	0.000157	1.572576	0.532803	0.000072
 889	4.4400e+01	17.7942	19.024527	0.000161	1.608317	0.544912	0.000073
 890	4.4450e+01	17.7974	19.062002	0.000164	1.644057	0.557022	0.000075
 891	4.4500e+01	17.8294	19.101514	0.000173	1.733408	0.587295	0.000079
 892	4.4550e+01	17.8310	19.138175	0.000161	1.608317	0.544912	0.000073
 893	4.4600e+01	17.8663	19.176465	0.000168	1.679798	0.569131	0.000077
 894	4.4650e+01	17.8744	19.218422	0.000184	1.840629	0.623622	0.000084
 895	4.4700e+01	17.9016	19.251416	0.000145	1.447485	0.490421	0.000066
 896	4.4750e+01	17.9145	19.288484	0.000163	1.626187	0.550967	0.000074
 897	4.4800e+01	17.9385	19.325960	0.000164	1.644057	0.557022	0.000075
 898	4.4850e+01	17.9498	19.365065	0.000172	1.715538	0.581240	0.000078
 899	4.4900e+01	17.9802	19.404577	0.000173	1.733408	0.587295	0.000079
 900	4.4950e+01	17.9899	19.442460	0.000166	1.661927	0.563076	0.000076
 901	4.5000e+01	18.0155	19.479121	0.000161	1.608317	0.544912	0.000073
 902	4.5050e+01	18.0380	19.518226	0.000172	1.715538	0.581240	0.000078
 903	4.5100e+01	18.0380	19.550813	-0.000143	-1.429615	-0.484367	0.000065
 904	4.5150e+01	18.0781	19.589103	0.000168	1.679798	0.569131	0.000077
 905	4.5200e+01	18.0861	19.624542	0.000155	1.554706	0.526749	0.000071
 906	4.5250e+01	18.1278	19.665276	0.000179	1.787019	0.605458	0.000081
 907	4.5300e+01	18.1391	19.704789	0.000173	1.733408	0.587295	0.000079
 908	4.5350e+01	18.1599	19.739820	0.000154	1.536836	0.520694	0.000070
 909	4.5400e+01	18.1808	19.779740	0.000175	1.751278	0.593349	0.000080
 910	4.5450e+01	18.2145	19.817215	0.000164	1.644057	0.557022	0.000075
 911	4.5500e+01	18.2209	19.854283	0.000163	1.626187	0.550967	0.000074
 912	4.5550e+01	18.2514	19.893388	0.000172	1.715538	0.581240	0.000078
 913	4.5600e+01	18.2770	19.926383	0.000145	1.447485	0.490421	0.000066
 914	4.5650e+01	18.2979	19.963451	0.000163	1.626187	0.550967	0.000074
 915	4.5700e+01	18.2802	20.001334	-0.000166	-1.661927	-0.563076	0.000076
 916	4.5750e+01	18.3171	20.039624	0.000168	1.679798	0.569131	0.000077
 917	4.5800e+01	18.3588	20.074656	0.000154	1.536836	0.520694	0.000070
 918	4.5850e+01	18.3524	20.112538	-0.000166	-1.661927	-0.563076	0.000076
 919	4.5900e+01	18.3893	20.148792	0.000159	1.590447	0.538858	0.000073
 920	4.5950e+01	18.3973	20.187490	0.000170	1.697668	0.575185	0.000077
 921	4.6000e+01	18.4230	20.225780	0.000168	1.679798	0.569131	0.000077
 922	4.6050e+01	18.4166	20.262848	-0.000163	-1.626187	-0.550967	0.000074
 923	4.6100e+01	18.4743	20.300731	0.000166	1.661927	0.563076	0.000076
 924	4.6150e+01	18.4840	20.332503	0.000139	1.393875	0.472257	0.000064
 925	4.6200e+01	18.4727	20.368350	-0.000157	-1.572576	-0.532803	0.000072
 926	4.6250e+01	18.5161	20.406640	0.000168	1.679798	0.569131	0.000077
 927	4.6300e+01	18.5385	20.447374	0.000179	1.787019	0.605458	0.000081
 928	4.6350e+01	18.5353	20.486072	-0.000170	-1.697668	-0.575185	0.000077
 929	4.6400e+01	18.5915	20.521510	0.000155	1.554706	0.526749	0.000071
 930	4.6450e+01	18.6235	20.563467	0.000184	1.840629	0.623622	0.000084
 931	4.6500e+01	18.6011	20.596461	-0.000145	-1.447485	-0.490421	0.000066
 932	4.6550e+01	18.6267	20.632715	0.000159	1.590447	0.538858	0.000073
 933	4.6600e+01	18.6476	20.670190	0.000164	1.644057	0.557022	0.000075
 934	4.6650e+01	18.6765	20.704407	0.000150	1.501096	0.508585	0.000068
 935	4.6700e+01	18.6957	20.738217	0.000148	1.483225	0.502530	0.000068
 936	4.6750e+01	18.7150	20.777322	0.000172	1.715538	0.581240	0.000078
 937	4.6800e+01	18.7455	20.812760	0.000155	1.554706	0.526749	0.000071
 938	4.6850e+01	18.7503	20.846977	0.000150	1.501096	0.508585	0.000068
 939	4.6900e+01	18.7727	20.885267	0.000168	1.679798	0.569131	0.000077
 940	4.6950e+01	18.8080	20.917855	0.000143	1.429615	0.484367	0.000065
 941	4.7000e+01	18.8048	20.957367	-0.000173	-1.733408	-0.587295	0.000079
 942	4.7050e+01	18.8321	20.987510	0.000132	1.322394	0.448039	0.000060
 943	4.7100e+01	18.8562	21.026615	0.000172	1.715538	0.581240	0.000078
 944	4.7150e+01	18.8834	21.061239	0.000152	1.518966	0.514640	0.000069
 945	4.7200e+01	18.9219	21.094641	0.000147	1.465355	0.496476	0.000067
 946	4.7250e+01	18.9123	21.129265	-0.000152	-1.518966	-0.514640	0.000069
 947	4.7300e+01	18.9396	21.165112	0.000157	1.572576	0.532803	0.000072
 948	4.7350e+01	18.9620	21.202587	0.000164	1.644057	0.557022	0.000075
 949	4.7400e+01	18.9925	21.239248	0.000161	1.608317	0.544912	0.000073
 950	4.7450e+01	18.9941	21.275909	0.000161	1.608317	0.544912	0.000073
 951	4.7500e+01	19.0150	21.309311	0.000147	1.465355	0.496476	0.000067
 952	4.7550e+01	19.0326	21.352489	0.000189	1.894240	0.641786	0.000086
 953	4.7600e+01	19.0727	21.386299	0.000148	1.483225	0.502530	0.000068
 954	4.7650e+01	19.0872	21.421330	0.000154	1.536836	0.520694	0.000070
 955	4.7700e+01	19.0920	21.463694	0.000186	1.858499	0.629677	0.000085
 956	4.7750e+01	19.1176	21.498725	0.000154	1.536836	0.520694	0.000070
 957	4.7800e+01	19.1610	21.536201	0.000164	1.644057	0.557022	0.000075
 958	4.7850e+01	19.1626	21.568381	0.000141	1.411745	0.478312	0.000064
 959	4.7900e+01	19.1770	21.606671	0.000168	1.679798	0.569131	0.000077
 960	4.7950e+01	19.1962	21.644961	0.000168	1.679798	0.569131	0.000077
 961	4.8000e+01	19.2348	21.686103	0.000180	1.804889	0.611513	0.000082
 962	4.8050e+01	19.2396	21.720727	0.000152	1.518966	0.514640	0.000069
 963	4.8100e+01	19.2604	21.763905	0.000189	1.894240	0.641786	0.000086
 964	4.8150e+01	19.2716	21.797715	0.000148	1.483225	0.502530	0.000068
 965	4.8200e+01	19.2765	21.837227	0.000173	1.733408	0.587295	0.000079
 966	4.8250e+01	19.3102	21.868592	0.000138	1.376004	0.466203	0.000063
 967	4.8300e+01	19.3422	21.906475	0.000166	1.661927	0.563076	0.000076
 968	4.8350e+01	19.3615	21.946395	0.000175	1.751278	0.593349	0.000080
 969	4.8400e+01	19.3823	21.984278	0.000166	1.661927	0.563076	0.000076
 970	4.8450e+01	19.4128	22.021753	0.000164	1.644057	0.557022	0.000075
 971	4.8500e+01	19.4273	22.057599	0.000157	1.572576	0.532803	0.000072
 972	4.8550e+01	19.4192	22.091409	-0.000148	-1.483225	-0.502530	0.000068
 973	4.8600e+01	19.4818	22.128884	0.000164	1.644057	0.557022	0.000075
 974	4.8650e+01	19.4754	22.165952	-0.000163	-1.626187	-0.550967	0.000074
 975	4.8700e+01	19.5187	22.204242	0.000168	1.679798	0.569131	0.000077
 976	4.8750e+01	19.5315	22.246199	0.000184	1.840629	0.623622	0.000084
 977	4.8800e+01	19.5235	22.276749	-0.000134	-1.340264	-0.454094	0.000061
 978	4.8850e+01	19.5428	22.310152	0.000147	1.465355	0.496476	0.000067
 979	4.8900e+01	19.5781	22.349664	0.000173	1.733408	0.587295	0.000079
 980	4.8950e+01	19.6069	22.390398	0.000179	1.787019	0.605458	0.000081
 981	4.9000e+01	19.5989	22.427874	-0.000164	-1.644057	-0.557022	0.000075
 982	4.9050e+01	19.6278	22.465349	0.000164	1.644057	0.557022	0.000075
 983	4.9100e+01	19.6663	22.503232	0.000166	1.661927	0.563076	0.000076
 984	4.9150e+01	19.6904	22.540300	0.000163	1.626187	0.550967	0.000074
 985	4.9200e+01	19.6855	22.576961	-0.000161	-1.608317	-0.544912	0.000073
 986	4.9250e+01	19.7208	22.616066	0.000172	1.715538	0.581240	0.000078
 987	4.9300e+01	19.7561	22.651912	0.000157	1.572576	0.532803	0.000072
 988	4.9350e+01	19.7545	22.693868	-0.000184	-1.840629	-0.623622	0.000084
 989	4.9400e+01	19.7722	22.728085	0.000150	1.501096	0.508585	0.000068
 990	4.9450e+01	19.8059	22.766375	0.000168	1.679798	0.569131	0.000077
 991	4.9500e+01	19.8139	22.805887	0.000173	1.733408	0.587295	0.000079
 992	4.9550e+01	19.8235	22.833587	0.000122	1.215173	0.411712	0.000055
 993	4.9600e+01	19.8444	22.872284	0.000170	1.697668	0.575185	0.000077
 994	4.9650e+01	19.9166	22.909352	0.000163	1.626187	0.550967	0.000074
 995	4.9700e+01	19.9053	22.954567	-0.000198	-1.983591	-0.672059	0.000090
 996	4.9750e+01	19.9149	22.987155	0.000143	1.429615	0.484367	0.000065
 997	4.9800e+01	19.9326	23.023001	0.000157	1.572576	0.532803	0.000072
 998	4.9850e+01	19.9679	23.060069	0.000163	1.626187	0.550967	0.000074
 999	4.9900e+01	19.9952	23.098767	0.000170	1.697668	0.575185	0.000077
1000	4.9950e+01	19.9759	23.136650	-0.000166	-1.661927	-0.563076	0.000076
1001	5.0000e+01	20.0305	23.174532	0.000166	1.661927	0.563076	0.000076
1002	5.0050e+01	19.9968	23.155387	0.000084	0.839899	0.284565	-0.000038
1003	5.0100e+01	19.9968	23.124837	0.000134	1.340264	0.454094	-0.000061
1004	5.0150e+01	19.9631	23.099174	0.000113	1.125822	0.381439	-0.000051
1005	5.0200e+01	19.9294	23.071475	0.000122	1.215173	0.411712	-0.000055
1006	5.0250e+01	19.9085	23.044998	0.000116	1.161562	0.393548	-0.000053
1007	5.0300e+01	19.8989	23.016484	0.000125	1.250913	0.423821	-0.000057
1008	5.0350e+01	19.8716	22.988377	0.000123	1.233043	0.417766	-0.000056
1009	5.0400e+01	19.8684	22.957419	0.000136	1.358134	0.460148	-0.000062
1010	5.0450e+01	19.8315	22.929312	0.000123	1.233043	0.417766	-0.000056
1011	5.0500e+01	19.8155	22.900391	0.000127	1.268783	0.429875	-0.000058
1012	5.0550e+01	19.7946	22.875136	0.000111	1.107952	0.375384	-0.000051
1013	5.0600e+01	19.7914	22.847436	0.000122	1.215173	0.411712	-0.000055
1014	5.0650e+01	19.7770	22.816886	0.000134	1.340264	0.454094	-0.000061
1015	5.0700e+01	19.7321	22.783891	0.000145	1.447485	0.490421	-0.000066
1016	5.0750e+01	19.7112	22.760672	0.000102	1.018601	0.345111	-0.000046
1017	5.0800e+01	19.7080	22.728900	0.000139	1.393875	0.472257	-0.000064
1018	5.0850e+01	19.6727	22.697127	0.000139	1.393875	0.472257	-0.000064
1019	5.0900e+01	19.6759	22.670242	-0.000118	-1.179432	-0.399602	-0.000054
1020	5.0950e+01	19.6438	22.640914	0.000129	1.286653	0.435930	-0.000059
1021	5.1000e+01	19.6278	22.612807	0.000123	1.233043	0.417766	-0.000056
1022	5.1050e+01	19.5941	22.589589	0.000102	1.018601	0.345111	-0.000046
1023	5.1100e+01	19.5684	22.550891	0.000170	1.697668	0.575185	-0.000077
1024	5.1150e+01	19.5363	22.526043	0.000109	1.090081	0.369330	-0.000050
1025	5.1200e+01	19.5299	22.488160	0.000166	1.661927	0.563076	-0.000076
1026	5.1250e+01	19.5219	22.460868	0.000120	1.197302	0.405657	-0.000055
1027	5.1300e+01	19.4994	22.429503	0.000138	1.376004	0.466203	-0.000063
1028	5.1350e+01	19.4626	22.402211	0.000120	1.197302	0.405657	-0.000055
1029	5.1400e+01	19.4481	22.372068	0.000132	1.322394	0.448039	-0.000060
1030	5.1450e+01	19.4658	22.343961	-0.000123	-1.233043	-0.417766	-0.000056
1031	5.1500e+01	19.4192	22.310559	0.000147	1.465355	0.496476	-0.000067
1032	5.1550e+01	19.3855	22.284082	0.000116	1.161562	0.393548	-0.000053
1033	5.1600e+01	19.3695	22.255160	0.000127	1.268783	0.429875	-0.000058
1034	5.1650e+01	19.3663	22.225017	0.000132	1.322394	0.448039	-0.000060
1035	5.1700e+01	19.3406	22.192430	0.000143	1.429615	0.484367	-0.000065
1036	5.1750e+01	19.2957	22.159027	0.000147	1.465355	0.496476	-0.000067
1037	5.1800e+01	19.3037	22.132550	-0.000116	-1.161562	-0.393548	-0.000053
1038	5.1850e+01	19.2941	22.106888	0.000113	1.125822	0.381439	-0.000051
1039	5.1900e+01	19.2604	22.070634	0.000159	1.590447	0.538858	-0.000073
1040	5.1950e+01	19.2380	22.041713	0.000127	1.268783	0.429875	-0.000058
1041	5.2000e+01	19.1930	22.008311	0.000147	1.465355	0.496476	-0.000067
1042	5.2050e+01	19.2043	21.978575	-0.000130	-1.304524	-0.441985	-0.000059
1043	5.2100e+01	19.1818	21.943136	0.000155	1.554706	0.526749	-0.000071
1044	5.2150e+01	19.1690	21.917473	0.000113	1.125822	0.381439	-0.000051
1045	5.2200e+01	19.1449	21.882035	0.000155	1.554706	0.526749	-0.000071
1046	5.2250e+01	19.1176	21.852706	0.000129	1.286653	0.435930	-0.000059
1047	5.2300e+01	19.0807	21.825007	0.000122	1.215173	0.411712	-0.000055
1048	5.2350e+01	19.0615	21.794863	0.000132	1.322394	0.448039	-0.000060
1049	5.2400e+01	19.0647	21.765535	-0.000129	-1.286653	-0.435930	-0.000059
1050	5.2450e+01	19.0374	21.734984	0.000134	1.340264	0.454094	-0.000061
1051	5.2500e+01	19.0262	21.702396	0.000143	1.429615	0.484367	-0.000065
1052	5.2550e+01	19.0118	21.666550	0.000157	1.572576	0.532803	-0.000072
1053	5.2600e+01	18.9604	21.637629	0.000127	1.268783	0.429875	-0.000058
1054	5.2650e+01	18.9717	21.604634	-0.000145	-1.447485	-0.490421	-0.000066
1055	5.2700e+01	18.9540	21.578157	0.000116	1.161562	0.393548	-0.000053
1056	5.2750e+01	18.9107	21.545977	0.000141	1.411745	0.478312	-0.000064
1057	5.2800e+01	18.8995	21.513390	0.000143	1.429615	0.484367	-0.000065
1058	5.2850e+01	18.8690	21.481617	0.000139	1.393875	0.472257	-0.000064
1059	5.2900e+01	18.8610	21.449029	0.000143	1.429615	0.484367	-0.000065
1060	5.2950e+01	18.8754	21.415627	-0.000147	-1.465355	-0.496476	-0.000067
1061	5.3000e+01	18.8241	21.382633	0.000145	1.447485	0.490421	-0.000066
1062	5.3050e+01	18.7775	21.353711	0.000127	1.268783	0.429875	-0.000058
1063	5.3100e+01	18.7791	21.317865	-0.000157	-1.572576	-0.532803	-0.000072
1064	5.3150e+01	18.7423	21.290573	0.000120	1.197302	0.405657	-0.000055
1065	5.3200e+01	18.7631	21.257986	-0.000143	-1.429615	-0.484367	-0.000065
1066	5.3250e+01	18.7150	21.229064	0.000127	1.268783	0.429875	-0.000058
1067	5.3300e+01	18.6957	21.189960	0.000172	1.715538	0.581240	-0.000078
1068	5.3350e+01	18.6669	21.154521	0.000155	1.554706	0.526749	-0.000071
1069	5.3400e+01	18.6396	21.127229	0.000120	1.197302	0.405657	-0.000055
1070	5.3450e+01	18.6219	21.091383	0.000157	1.572576	0.532803	-0.000072
1071	5.3500e+01	18.6284	21.063276	-0.000123	-1.233043	-0.417766	-0.000056
1072	5.3550e+01	18.5866	21.032725	0.000134	1.340264	0.454094	-0.000061
1073	5.3600e+01	18.5850	20.998101	0.000152	1.518966	0.514640	-0.000069
1074	5.3650e+01	18.5530	20.967550	0.000134	1.340264	0.454094	-0.000061
1075	5.3700e+01	18.5417	20.935778	0.000139	1.393875	0.472257	-0.000064
1076	5.3750e+01	18.5128	20.899932	0.000157	1.572576	0.532803	-0.000072
1077	5.3800e+01	18.4776	20.866122	0.000148	1.483225	0.502530	-0.000068
1078	5.3850e+01	18.4840	20.832313	-0.000148	-1.483225	-0.502530	-0.000068
1079	5.3900e+01	18.4615	20.803391	0.000127	1.268783	0.429875	-0.000058
1080	5.3950e+01	18.4246	20.768767	0.000152	1.518966	0.514640	-0.000069
1081	5.4000e+01	18.4198	20.740253	0.000125	1.250913	0.423821	-0.000057
1082	5.4050e+01	18.4070	20.705629	0.000152	1.518966	0.514640	-0.000069
1083	5.4100e+01	18.3909	20.675893	0.000130	1.304524	0.441985	-0.000059
1084	5.4150e+01	18.3412	20.638418	0.000164	1.644057	0.557022	-0.000075
1085	5.4200e+01	18.3284	20.604608	0.000148	1.483225	0.502530	-0.000068
1086	5.4250e+01	18.3171	20.573243	0.000138	1.376004	0.466203	-0.000063
1087	5.4300e+01	18.2866	20.540656	0.000143	1.429615	0.484367	-0.000065
1088	5.4350e+01	18.2786	20.506846	0.000148	1.483225	0.502530	-0.000068
1089	5.4400e+01	18.2706	20.475888	0.000136	1.358134	0.460148	-0.000062
1090	5.4450e+01	18.2369	20.444115	0.000139	1.393875	0.472257	-0.000064
1091	5.4500e+01	18.2353	20.411935	0.000141	1.411745	0.478312	-0.000064
1092	5.4550e+01	18.1888	20.377311	0.000152	1.518966	0.514640	-0.000069
1093	5.4600e+01	18.1695	20.342687	0.000152	1.518966	0.514640	-0.000069
1094	5.4650e+01	18.1455	20.307656	0.000154	1.536836	0.520694	-0.000070
1095	5.4700e+01	18.1535	20.282400	-0.000111	-1.107952	-0.375384	-0.000051
1096	5.4750e+01	18.1150	20.246554	0.000157	1.572576	0.532803	-0.000072
1097	5.4800e+01	18.0893	20.216003	0.000134	1.340264	0.454094	-0.000061
1098	5.4850e+01	18.0990	20.180972	-0.000154	-1.536836	-0.520694	-0.000070
1099	5.4900e+01	18.0572	20.148792	0.000141	1.411745	0.478312	-0.000064
1100	5.4950e+01	18.0444	20.115390	0.000147	1.465355	0.496476	-0.000067
1101	5.5000e+01	18.0171	20.084839	0.000134	1.340264	0.454094	-0.000061
1102	5.5050e+01	18.0043	20.055511	0.000129	1.286653	0.435930	-0.000059
1103	5.5100e+01	17.9722	20.023330	0.000141	1.411745	0.478312	-0.000064
1104	5.5150e+01	17.9706	19.988706	0.000152	1.518966	0.514640	-0.000069
1105	5.5200e+01	17.9193	19.958970	0.000130	1.304524	0.441985	-0.000059
1106	5.5250e+01	17.9097	19.925161	0.000148	1.483225	0.502530	-0.000068
1107	5.5300e+01	17.9097	19.895425	0.000130	1.304524	0.441985	-0.000059
1108	5.5350e+01	17.9032	19.863245	0.000141	1.411745	0.478312	-0.000064
1109	5.5400e+01	17.8712	19.829028	0.000150	1.501096	0.508585	-0.000068
1110	5.5450e+01	17.8310	19.797663	0.000138	1.376004	0.466203	-0.000063
1111	5.5500e+01	17.8166	19.767112	0.000134	1.340264	0.454094	-0.000061
1112	5.5550e+01	17.7958	19.734525	0.000143	1.429615	0.484367	-0.000065
1113	5.5600e+01	17.7925	19.701530	0.000145	1.447485	0.490421	-0.000066
1114	5.5650e+01	17.7524	19.666091	0.000155	1.554706	0.526749	-0.000071
1115	5.5700e+01	17.7364	19.636355	0.000130	1.304524	0.441985	-0.000059
1116	5.5750e+01	17.7364	19.603360	0.000145	1.447485	0.490421	-0.000066
1117	5.5800e+01	17.6819	19.575254	0.000123	1.233043	0.417766	-0.000056
1118	5.5850e+01	17.6851	19.540630	-0.000152	-1.518966	-0.514640	-0.000069
1119	5.5900e+01	17.6562	19.504376	0.000159	1.590447	0.538858	-0.000073
1120	5.5950e+01	17.6032	19.470567	0.000148	1.483225	0.502530	-0.000068
1121	5.6000e+01	17.6081	19.442053	-0.000125	-1.250913	-0.423821	-0.000057
1122	5.6050e+01	17.6113	19.409058	-0.000145	-1.447485	-0.490421	-0.000066
1123	5.6100e+01	17.5487	19.370768	0.000168	1.679798	0.569131	-0.000077
1124	5.6150e+01	17.5583	19.334107	-0.000161	-1.608317	-0.544912	-0.000073
1125	5.6200e+01	17.5455	19.299075	0.000154	1.536836	0.520694	-0.000070
1126	5.6250e+01	17.5086	19.265266	0.000148	1.483225	0.502530	-0.000068
1127	5.6300e+01	17.5022	19.232679	0.000143	1.429615	0.484367	-0.000065
1128	5.6350e+01	17.4813	19.198462	0.000150	1.501096	0.508585	-0.000068
1129	5.6400e+01	17.4508	19.160986	0.000164	1.644057	0.557022	-0.000075
1130	5.6450e+01	17.4444	19.123511	0.000164	1.644057	0.557022	-0.000075
1131	5.6500e+01	17.4284	19.092145	0.000138	1.376004	0.466203	-0.000063
1132	5.6550e+01	17.3947	19.062002	0.000132	1.322394	0.448039	-0.000060
1133	5.6600e+01	17.3642	19.027785	0.000150	1.501096	0.508585	-0.000068
1134	5.6650e+01	17.3546	18.992754	0.000154	1.536836	0.520694	-0.000070
1135	5.6700e+01	17.3450	18.957315	0.000155	1.554706	0.526749	-0.000071
1136	5.6750e+01	17.3017	18.918617	0.000170	1.697668	0.575185	-0.000077
1137	5.6800e+01	17.3193	18.878291	-0.000177	-1.769148	-0.599404	-0.000081
1138	5.6850e+01	17.2744	18.846518	0.000139	1.393875	0.472257	-0.000064
1139	5.6900e+01	17.2471	18.809042	0.000164	1.644057	0.557022	-0.000075
1140	5.6950e+01	17.2070	18.775640	0.000147	1.465355	0.496476	-0.000067
1141	5.7000e+01	17.2166	18.739387	-0.000159	-1.590447	-0.538858	-0.000073
1142	5.7050e+01	17.2182	18.712095	-0.000120	-1.197302	-0.405657	-0.000055
1143	5.7100e+01	17.1910	18.677063	0.000154	1.536836	0.520694	-0.000070
1144	5.7150e+01	17.1460	18.640402	0.000161	1.608317	0.544912	-0.000073
1145	5.7200e+01	17.1268	18.602112	0.000168	1.679798	0.569131	-0.000077
1146	5.7250e+01	17.1364	18.569932	-0.000141	-1.411745	-0.478312	-0.000064
1147	5.7300e+01	17.0947	18.530420	0.000173	1.733408	0.587295	-0.000079
1148	5.7350e+01	17.0787	18.499055	0.000138	1.376004	0.466203	-0.000063
1149	5.7400e+01	17.0562	18.460357	0.000170	1.697668	0.575185	-0.000077
1150	5.7450e+01	17.0514	18.425326	0.000154	1.536836	0.520694	-0.000070
1151	5.7500e+01	17.0225	18.389072	0.000159	1.590447	0.538858	-0.000073
1152	5.7550e+01	17.0081	18.350375	0.000170	1.697668	0.575185	-0.000077
1153	5.7600e+01	16.9888	18.321453	0.000127	1.268783	0.429875	-0.000058
1154	5.7650e+01	16.9519	18.284385	0.000163	1.626187	0.550967	-0.000074
1155	5.7700e+01	16.9519	18.244873	0.000173	1.733408	0.587295	-0.000079
1156	5.7750e+01	16.9070	18.212285	0.000143	1.429615	0.484367	-0.000065
1157	5.7800e+01	16.9006	18.171959	0.000177	1.769148	0.599404	-0.000081
1158	5.7850e+01	16.8733	18.141408	0.000134	1.340264	0.454094	-0.000061
1159	5.7900e+01	16.8412	18.102710	0.000170	1.697668	0.575185	-0.000077
1160	5.7950e+01	16.8332	18.074196	0.000125	1.250913	0.423821	-0.000057
1161	5.8000e+01	16.8236	18.039572	0.000152	1.518966	0.514640	-0.000069
1162	5.8050e+01	16.8140	18.004133	0.000155	1.554706	0.526749	-0.000071
1163	5.8100e+01	16.7706	17.965436	0.000170	1.697668	0.575185	-0.000077
1164	5.8150e+01	16.7562	17.936107	0.000129	1.286653	0.435930	-0.000059
1165	5.8200e+01	16.7546	17.895373	0.000179	1.787019	0.605458	-0.000081
1166	5.8250e+01	16.7289	17.866044	0.000129	1.286653	0.435930	-0.000059
1167	5.8300e+01	16.7017	17.830606	0.000155	1.554706	0.526749	-0.000071
1168	5.8350e+01	16.6712	17.794352	0.000159	1.590447	0.538858	-0.000073
1169	5.8400e+01	16.6744	17.757691	-0.000161	-1.608317	-0.544912	-0.000073
1170	5.8450e+01	16.6231	17.723882	0.000148	1.483225	0.502530	-0.000068
1171	5.8500e+01	16.6182	17.691294	0.000143	1.429615	0.484367	-0.000065
1172	5.8550e+01	16.5878	17.653819	0.000164	1.644057	0.557022	-0.000075
1173	5.8600e+01	16.5781	17.620417	0.000147	1.465355	0.496476	-0.000067
1174	5.8650e+01	16.5685	17.585793	0.000152	1.518966	0.514640	-0.000069
1175	5.8700e+01	16.5477	17.553205	0.000143	1.429615	0.484367	-0.000065
1176	5.8750e+01	16.5060	17.514100	0.000172	1.715538	0.581240	-0.000078
1177	5.8800e+01	16.5076	17.476217	-0.000166	-1.661927	-0.563076	-0.000076
1178	5.8850e+01	16.4851	17.439557	0.000161	1.608317	0.544912	-0.000073
1179	5.8900e+01	16.4723	17.409413	0.000132	1.322394	0.448039	-0.000060
1180	5.8950e+01	16.4338	17.373160	0.000159	1.590447	0.538858	-0.000073
1181	5.9000e+01	16.4001	17.338943	0.000150	1.501096	0.508585	-0.000068
1182	5.9050e+01	16.4065	17.303097	-0.000157	-1.572576	-0.532803	-0.000072
1183	5.9100e+01	16.3856	17.266436	0.000161	1.608317	0.544912	-0.000073
1184	5.9150e+01	16.3503	17.232219	0.000150	1.501096	0.508585	-0.000068
1185	5.9200e+01	16.3247	17.196780	0.000155	1.554706	0.526749	-0.000071
1186	5.9250e+01	16.3263	17.162156	-0.000152	-1.518966	-0.514640	-0.000069
1187	5.9300e+01	16.2878	17.132828	0.000129	1.286653	0.435930	-0.000059
1188	5.9350e+01	16.2974	17.092501	-0.000177	-1.769148	-0.599404	-0.000081
1189	5.9400e+01	16.2332	17.056247	0.000159	1.590447	0.538858	-0.000073
1190	5.9450e+01	16.2332	17.020809	0.000155	1.554706	0.526749	-0.000071
1191	5.9500e+01	16.2108	16.985370	0.000155	1.554706	0.526749	-0.000071
1192	5.9550e+01	16.1899	16.949524	0.000157	1.572576	0.532803	-0.000072
1193	5.9600e+01	16.1755	16.915714	0.000148	1.483225	0.502530	-0.000068
1194	5.9650e+01	16.1851	16.878239	-0.000164	-1.644057	-0.557022	-0.000075
1195	5.9700e+01	16.1354	16.846873	0.000138	1.376004	0.466203	-0.000063
1196	5.9750e+01	16.1370	16.807768	-0.000172	-1.715538	-0.581240	-0.000078
1197	5.9800e+01	16.0889	16.771922	0.000157	1.572576	0.532803	-0.000072
1198	5.9850e+01	16.0680	16.736891	0.000154	1.536836	0.520694	-0.000070
1199	5.9900e+01	16.0520	16.701452	0.000155	1.554706	0.526749	-0.000071
1200	5.9950e+01	16.0263	16.664791	0.000161	1.608317	0.544912	-0.000073
1201	6.0000e+01	16.0054	16.635462	0.000129	1.286653	0.435930	-0.000059
1202	6.0050e+01	16.0135	16.599209	-0.000159	-1.590447	-0.538858	-0.000073
1203	6.0100e+01	15.9701	16.561733	0.000164	1.644057	0.557022	-0.000075
1204	6.0150e+01	15.9493	16.523036	0.000170	1.697668	0.575185	-0.000077
1205	6.0200e+01	15.9589	16.485968	-0.000163	-1.626187	-0.550967	-0.000074
1206	6.0250e+01	15.9316	16.455824	0.000132	1.322394	0.448039	-0.000060
1207	6.0300e+01	15.9108	16.416720	0.000172	1.715538	0.581240	-0.000078
1208	6.0350e+01	15.8899	16.375985	0.000179	1.787019	0.605458	-0.000081
1209	6.0400e+01	15.8610	16.341768	0.000150	1.501096	0.508585	-0.000068
1210	6.0450e+01	15.8338	16.303071	0.000170	1.697668	0.575185	-0.000077
1211	6.0500e+01	15.8049	16.269669	0.000147	1.465355	0.496476	-0.000067
1212	6.0550e+01	15.7921	16.233823	0.000157	1.572576	0.532803	-0.000072
1213	6.0600e+01	15.7953	16.199606	-0.000150	-1.501096	-0.508585	-0.000068
1214	6.0650e+01	15.7279	16.165389	0.000150	1.501096	0.508585	-0.000068
1215	6.0700e+01	15.7455	16.127914	-0.000164	-1.644057	-0.557022	-0.000075
1216	6.0750e+01	15.7135	16.088809	0.000172	1.715538	0.581240	-0.000078
1217	6.0800e+01	15.6958	16.051333	0.000164	1.644057	0.557022	-0.000075
1218	6.0850e+01	15.6846	16.015894	0.000155	1.554706	0.526749	-0.000071
1219	6.0900e+01	15.6621	15.983714	0.000141	1.411745	0.478312	-0.000064
1220	6.0950e+01	15.6493	15.942165	0.000182	1.822759	0.617567	-0.000083
1221	6.1000e+01	15.6124	15.913244	0.000127	1.268783	0.429875	-0.000058
1222	6.1050e+01	15.5931	15.872917	0.000177	1.769148	0.599404	-0.000081
1223	6.1100e+01	15.5691	15.836664	0.000159	1.590447	0.538858	-0.000073
1224	6.1150e+01	15.5450	15.800410	0.000159	1.590447	0.538858	-0.000073
1225	6.1200e+01	15.5370	15.766601	0.000148	1.483225	0.502530	-0.000068
1226	6.1250e+01	15.5161	15.729940	0.000161	1.608317	0.544912	-0.000073
1227	6.1300e+01	15.4905	15.694094	0.000157	1.572576	0.532803	-0.000072
1228	6.1350e+01	15.5193	15.656211	-0.000166	-1.661927	-0.563076	-0.000076
1229	6.1400e+01	15.4600	15.617921	0.000168	1.679798	0.569131	-0.000077
1230	6.1450e+01	15.4359	15.579631	0.000168	1.679798	0.569131	-0.000077
1231	6.1500e+01	15.4295	15.545006	0.000152	1.518966	0.514640	-0.000069
1232	6.1550e+01	15.3958	15.510790	0.000150	1.501096	0.508585	-0.000068
1233	6.1600e+01	15.3814	15.476166	0.000152	1.518966	0.514640	-0.000069
1234	6.1650e+01	15.3686	15.439912	0.000159	1.590447	0.538858	-0.000073
1235	6.1700e+01	15.3637	15.402029	0.000166	1.661927	0.563076	-0.000076
1236	6.1750e+01	15.3076	15.364554	0.000164	1.644057	0.557022	-0.000075
1237	6.1800e+01	15.2996	15.328300	0.000159	1.590447	0.538858	-0.000073
1238	6.1850e+01	15.2899	15.297750	0.000134	1.340264	0.454094	-0.000061
1239	6.1900e+01	15.2691	15.254979	0.000188	1.876370	0.635731	-0.000086
1240	6.1950e+01	15.2418	15.224835	0.000132	1.322394	0.448039	-0.000060
1241	6.2000e+01	15.2210	15.186138	0.000170	1.697668	0.575185	-0.000077
1242	6.2050e+01	15.2081	15.149069	0.000163	1.626187	0.550967	-0.000074
1243	6.2100e+01	15.1937	15.110779	0.000168	1.679798	0.569131	-0.000077
1244	6.2150e+01	15.1568	15.076155	0.000152	1.518966	0.514640	-0.000069
1245	6.2200e+01	15.1424	15.039902	0.000159	1.590447	0.538858	-0.000073
1246	6.2250e+01	15.1263	15.001611	0.000168	1.679798	0.569131	-0.000077
1247	6.2300e+01	15.1006	14.964543	0.000163	1.626187	0.550967	-0.000074
1248	6.2350e+01	15.0702	14.931141	0.000147	1.465355	0.496476	-0.000067
1249	6.2400e+01	15.0461	14.895702	0.000155	1.554706	0.526749	-0.000071
1250	6.2450e+01	15.0461	14.854561	0.000180	1.804889	0.611513	-0.000082
1251	6.2500e+01	15.0236	14.822788	0.000139	1.393875	0.472257	-0.000064
1252	6.2550e+01	15.0124	14.782054	0.000179	1.787019	0.605458	-0.000081
1253	6.2600e+01	14.9675	14.744171	0.000166	1.661927	0.563076	-0.000076
1254	6.2650e+01	14.9482	14.707510	0.000161	1.608317	0.544912	-0.000073
1255	6.2700e+01	14.9226	14.674108	0.000147	1.465355	0.496476	-0.000067
1256	6.2750e+01	14.9194	14.635818	0.000168	1.679798	0.569131	-0.000077
1257	6.2800e+01	14.8921	14.598750	0.000163	1.626187	0.550967	-0.000074
1258	6.2850e+01	14.8825	14.562089	0.000161	1.608317	0.544912	-0.000073
1259	6.2900e+01	14.8616	14.524206	0.000166	1.661927	0.563076	-0.000076
1260	6.2950e+01	14.8375	14.489989	0.000150	1.501096	0.508585	-0.000068
1261	6.3000e+01	14.8039	14.452514	0.000164	1.644057	0.557022	-0.000075
1262	6.3050e+01	14.8231	14.413816	-0.000170	-1.697668	-0.575185	-0.000077
1263	6.3100e+01	14.7798	14.377155	0.000161	1.608317	0.544912	-0.000073
1264	6.3150e+01	14.7461	14.338865	0.000168	1.679798	0.569131	-0.000077
1265	6.3200e+01	14.7317	14.301797	0.000163	1.626187	0.550967	-0.000074
1266	6.3250e+01	14.7172	14.266358	0.000155	1.554706	0.526749	-0.000071
1267	6.3300e+01	14.7060	14.228068	0.000168	1.679798	0.569131	-0.000077
1268	6.3350e+01	14.6707	14.189778	0.000168	1.679798	0.569131	-0.000077
1269	6.3400e+01	14.6707	14.145377	0.000195	1.947850	0.659950	-0.000089
1270	6.3450e+01	14.6434	14.106273	0.000172	1.715538	0.581240	-0.000078
1271	6.3500e+01	14.6130	14.074092	0.000141	1.411745	0.478312	-0.000064
1272	6.3550e+01	14.5905	14.034173	0.000175	1.751278	0.593349	-0.000080
1273	6.3600e+01	14.5712	13.992624	0.000182	1.822759	0.617567	-0.000083
1274	6.3650e+01	14.5632	13.955556	0.000163	1.626187	0.550967	-0.000074
1275	6.3700e+01	14.5311	13.917266	0.000168	1.679798	0.569131	-0.000077
1276	6.3750e+01	14.4991	13.878568	0.000170	1.697668	0.575185	-0.000077
1277	6.3800e+01	14.4798	13.839871	0.000170	1.697668	0.575185	-0.000077
1278	6.3850e+01	14.4654	13.799951	0.000175	1.751278	0.593349	-0.000080
1279	6.3900e+01	14.4349	13.760439	0.000173	1.733408	0.587295	-0.000079
1280	6.3950e+01	14.4317	13.724593	0.000157	1.572576	0.532803	-0.000072
1281	6.4000e+01	14.4221	13.684266	0.000177	1.769148	0.599404	-0.000081
1282	6.4050e+01	14.4028	13.645568	0.000170	1.697668	0.575185	-0.000077
1283	6.4100e+01	14.3819	13.613388	0.000141	1.411745	0.478312	-0.000064
1284	6.4150e+01	14.3515	13.571839	0.000182	1.822759	0.617567	-0.000083
1285	6.4200e+01	14.3258	13.534364	0.000164	1.644057	0.557022	-0.000075
1286	6.4250e+01	14.3210	13.494037	0.000177	1.769148	0.599404	-0.000081
1287	6.4300e+01	14.2969	13.460227	0.000148	1.483225	0.502530	-0.000068
1288	6.4350e+01	14.2953	13.418271	0.000184	1.840629	0.623622	-0.000084
1289	6.4400e+01	14.2504	13.383647	0.000152	1.518966	0.514640	-0.000069
1290	6.4450e+01	14.2472	13.340876	0.000188	1.876370	0.635731	-0.000086
1291	6.4500e+01	14.2119	13.314806	0.000114	1.143692	0.387493	-0.000052
1292	6.4550e+01	14.2007	13.274479	0.000177	1.769148	0.599404	-0.000081
1293	6.4600e+01	14.1975	13.242299	0.000141	1.411745	0.478312	-0.000064
1294	6.4650e+01	14.1702	13.200750	0.000182	1.822759	0.617567	-0.000083
1295	6.4700e+01	14.1285	13.165719	0.000154	1.536836	0.520694	-0.000070
1296	6.4750e+01	14.1012	13.124170	0.000182	1.822759	0.617567	-0.000083
1297	6.4800e+01	14.0900	13.089138	0.000154	1.536836	0.520694	-0.000070
1298	6.4850e+01	14.0900	13.048404	0.000179	1.787019	0.605458	-0.000081
1299	6.4900e+01	14.0643	13.007670	0.000179	1.787019	0.605458	-0.000081
1300	6.4950e+01	14.0354	12.974268	0.000147	1.465355	0.496476	-0.000067
1301	6.5000e+01	13.9985	12.942088	0.000141	1.411745	0.478312	-0.000064
1302	6.5050e+01	14.0194	12.902575	-0.000173	-1.733408	-0.587295	-0.000079
1303	6.5100e+01	13.9761	12.867544	0.000154	1.536836	0.520694	-0.000070
1304	6.5150e+01	13.9408	12.830476	0.000163	1.626187	0.550967	-0.000074
1305	6.5200e+01	13.9392	12.791371	0.000172	1.715538	0.581240	-0.000078
1306	6.5250e+01	13.9151	12.751859	0.000173	1.733408	0.587295	-0.000079
1307	6.5300e+01	13.9103	12.716827	0.000154	1.536836	0.520694	-0.000070
1308	6.5350e+01	13.8782	12.679759	0.000163	1.626187	0.550967	-0.000074
1309	6.5400e+01	13.8606	12.636581	0.000189	1.894240	0.641786	-0.000086
1310	6.5450e+01	13.8381	12.600734	0.000157	1.572576	0.532803	-0.000072
1311	6.5500e+01	13.8237	12.561222	0.000173	1.733408	0.587295	-0.000079
1312	6.5550e+01	13.8092	12.531486	0.000130	1.304524	0.441985	-0.000059
1313	6.5600e+01	13.7595	12.491567	0.000175	1.751278	0.593349	-0.000080
1314	6.5650e+01	13.7675	12.455313	-0.000159	-1.590447	-0.538858	-0.000073
1315	6.5700e+01	13.7611	12.413764	0.000182	1.822759	0.617567	-0.000083
1316	6.5750e+01	13.7162	12.377103	0.000161	1.608317	0.544912	-0.000073
1317	6.5800e+01	13.7034	12.342072	0.000154	1.536836	0.520694	-0.000070
1318	6.5850e+01	13.6681	12.300930	0.000180	1.804889	0.611513	-0.000082
1319	6.5900e+01	13.6472	12.265899	0.000154	1.536836	0.520694	-0.000070
1320	6.5950e+01	13.6616	12.226387	-0.000173	-1.733408	-0.587295	-0.000079
1321	6.6000e+01	13.6167	12.190541	0.000157	1.572576	0.532803	-0.000072
1322	6.6050e+01	13.6007	12.146955	0.000191	1.912110	0.647840	-0.000087
1323	6.6100e+01	13.5846	12.118848	0.000123	1.233043	0.417766	-0.000056
1324	6.6150e+01	13.5429	12.077299	0.000182	1.822759	0.617567	-0.000083
1325	6.6200e+01	13.5285	12.040231	0.000163	1.626187	0.550967	-0.000074
1326	6.6250e+01	13.5060	12.001941	0.000168	1.679798	0.569131	-0.000077
1327	6.6300e+01	13.5076	11.965280	-0.000161	-1.608317	-0.544912	-0.000073
1328	6.6350e+01	13.4675	11.926583	0.000170	1.697668	0.575185	-0.000077
1329	6.6400e+01	13.4643	11.892773	0.000148	1.483225	0.502530	-0.000068
1330	6.6450e+01	13.4338	11.851224	0.000182	1.822759	0.617567	-0.000083
1331	6.6500e+01	13.4419	11.808453	-0.000188	-1.876370	-0.635731	-0.000086
1332	6.6550e+01	13.4274	11.772607	0.000157	1.572576	0.532803	-0.000072
1333	6.6600e+01	13.3520	11.736354	0.000159	1.590447	0.538858	-0.000073
1334	6.6650e+01	13.3472	11.699693	0.000161	1.608317	0.544912	-0.000073
1335	6.6700e+01	13.3232	11.665883	0.000148	1.483225	0.502530	-0.000068
1336	6.6750e+01	13.3296	11.622705	-0.000189	-1.894240	-0.641786	-0.000086
1337	6.6800e+01	13.2622	11.586859	0.000157	1.572576	0.532803	-0.000072
1338	6.6850e+01	13.2686	11.544088	-0.000188	-1.876370	-0.635731	-0.000086
1339	6.6900e+01	13.2574	11.505390	0.000170	1.697668	0.575185	-0.000077
1340	6.6950e+01	13.2317	11.465471	0.000175	1.751278	0.593349	-0.000080
1341	6.7000e+01	13.2141	11.427588	0.000166	1.661927	0.563076	-0.000076
1342	6.7050e+01	13.2381	11.388076	-0.000173	-1.733408	-0.587295	-0.000079
1343	6.7100e+01	13.1756	11.349378	0.000170	1.697668	0.575185	-0.000077
1344	6.7150e+01	13.1563	11.314754	0.000152	1.518966	0.514640	-0.000069
1345	6.7200e+01	13.1242	11.271983	0.000188	1.876370	0.635731	-0.000086
1346	6.7250e+01	13.1066	11.232878	0.000172	1.715538	0.581240	-0.000078
1347	6.7300e+01	13.0697	11.194181	0.000170	1.697668	0.575185	-0.000077
1348	6.7350e+01	13.0745	11.155483	-0.000170	-1.697668	-0.575185	-0.000077
1349	6.7400e+01	13.0440	11.120452	0.000154	1.536836	0.520694	-0.000070
1350	6.7450e+01	13.0520	11.085828	-0.000152	-1.518966	-0.514640	-0.000069
1351	6.7500e+01	13.0296	11.040205	0.000200	2.001461	0.678113	-0.000091
1352	6.7550e+01	12.9895	11.001915	0.000168	1.679798	0.569131	-0.000077
1353	6.7600e+01	12.9558	10.963217	0.000170	1.697668	0.575185	-0.000077
1354	6.7650e+01	12.9670	10.922483	-0.000179	-1.787019	-0.605458	-0.000081
1355	6.7700e+01	12.9430	10.883378	0.000172	1.715538	0.581240	-0.000078
1356	6.7750e+01	12.9189	10.851198	0.000141	1.411745	0.478312	-0.000064
1357	6.7800e+01	12.9061	10.812908	0.000168	1.679798	0.569131	-0.000077
1358	6.7850e+01	12.8868	10.774210	0.000170	1.697668	0.575185	-0.000077
1359	6.7900e+01	12.8579	10.737550	0.000161	1.608317	0.544912	-0.000073
1360	6.7950e+01	12.8419	10.697223	0.000177	1.769148	0.599404	-0.000081
1361	6.8000e+01	12.8242	10.658933	0.000168	1.679798	0.569131	-0.000077
1362	6.8050e+01	12.7922	10.616162	0.000188	1.876370	0.635731	-0.000086
1363	6.8100e+01	12.7841	10.577057	0.000172	1.715538	0.581240	-0.000078
1364	6.8150e+01	12.7601	10.536322	0.000179	1.787019	0.605458	-0.000081
1365	6.8200e+01	12.7376	10.502106	0.000150	1.501096	0.508585	-0.000068
1366	6.8250e+01	12.7184	10.461371	0.000179	1.787019	0.605458	-0.000081
1367	6.8300e+01	12.6895	10.423489	0.000166	1.661927	0.563076	-0.000076
1368	6.8350e+01	12.6638	10.384791	0.000170	1.697668	0.575185	-0.000077
1369	6.8400e+01	12.6686	10.345686	-0.000172	-1.715538	-0.581240	-0.000078
1370	6.8450e+01	12.6702	10.309433	-0.000159	-1.590447	-0.538858	-0.000073
1371	6.8500e+01	12.6398	10.264625	0.000197	1.965720	0.666004	-0.000090
1372	6.8550e+01	12.6093	10.225113	0.000173	1.733408	0.587295	-0.000079
1373	6.8600e+01	12.5804	10.186823	0.000168	1.679798	0.569131	-0.000077
1374	6.8650e+01	12.5836	10.146496	-0.000177	-1.769148	-0.599404	-0.000081
1375	6.8700e+01	12.5611	10.106983	0.000173	1.733408	0.587295	-0.000079
1376	6.8750e+01	12.5130	10.071137	0.000157	1.572576	0.532803	-0.000072
1377	6.8800e+01	12.5002	10.024700	0.000204	2.037201	0.690222	-0.000093
1378	6.8850e+01	12.4537	9.989669	0.000154	1.536836	0.520694	-0.000070
1379	6.8900e+01	12.4440	9.945676	0.000193	1.929980	0.653895	-0.000088
1380	6.8950e+01	12.4553	9.906571	-0.000172	-1.715538	-0.581240	-0.000078
1381	6.9000e+01	12.4023	9.869095	0.000164	1.644057	0.557022	-0.000075
1382	6.9050e+01	12.4232	9.827954	-0.000180	-1.804889	-0.611513	-0.000082
1383	6.9100e+01	12.3799	9.792922	0.000154	1.536836	0.520694	-0.000070
1384	6.9150e+01	12.3686	9.752188	0.000179	1.787019	0.605458	-0.000081
1385	6.9200e+01	12.3494	9.712268	0.000175	1.751278	0.593349	-0.000080
1386	6.9250e+01	12.3109	9.670720	0.000182	1.822759	0.617567	-0.000083
1387	6.9300e+01	12.2836	9.628763	0.000184	1.840629	0.623622	-0.000084
1388	6.9350e+01	12.2660	9.590473	0.000168	1.679798	0.569131	-0.000077
1389	6.9400e+01	12.2772	9.556664	-0.000148	-1.483225	-0.502530	-0.000068
1390	6.9450e+01	12.2483	9.511041	0.000200	2.001461	0.678113	-0.000091
1391	6.9500e+01	12.2307	9.476417	0.000152	1.518966	0.514640	-0.000069
1392	6.9550e+01	12.2339	9.432831	-0.000191	-1.912110	-0.647840	-0.000087
1393	6.9600e+01	12.1761	9.391283	0.000182	1.822759	0.617567	-0.000083
1394	6.9650e+01	12.1729	9.349734	0.000182	1.822759	0.617567	-0.000083
1395	6.9700e+01	12.1713	9.309407	0.000177	1.769148	0.599404	-0.000081
1396	6.9750e+01	12.1136	9.266228	0.000189	1.894240	0.641786	-0.000086
1397	6.9800e+01	12.1168	9.232419	-0.000148	-1.483225	-0.502530	-0.000068
1398	6.9850e+01	12.0686	9.191277	0.000180	1.804889	0.611513	-0.000082
1399	6.9900e+01	12.0542	9.152172	0.000172	1.715538	0.581240	-0.000078
1400	6.9950e+01	12.0366	9.107365	0.000197	1.965720	0.666004	-0.000090
1401	7.0000e+01	12.0510	9.070297	-0.000163	-1.626187	-0.550967	-0.000074
1402	7.0050e+01	12.0029	9.025489	0.000197	1.965720	0.666004	-0.000090
1403	7.0100e+01	11.9884	8.986791	0.000170	1.697668	0.575185	-0.000077
1404	7.0150e+01	11.9596	8.947279	0.000173	1.733408	0.587295	-0.000079
1405	7.0200e+01	11.9435	8.906952	0.000177	1.769148	0.599404	-0.000081
1406	7.0250e+01	11.9146	8.868255	0.000170	1.697668	0.575185	-0.000077
1407	7.0300e+01	11.9227	8.827928	-0.000177	-1.769148	-0.599404	-0.000081
1408	7.0350e+01	11.9002	8.783120	0.000197	1.965720	0.666004	-0.000090
1409	7.0400e+01	11.8713	8.742793	0.000177	1.769148	0.599404	-0.000081
1410	7.0450e+01	11.8521	8.704910	0.000166	1.661927	0.563076	-0.000076
1411	7.0500e+01	11.8184	8.658066	0.000206	2.055071	0.696277	-0.000094
1412	7.0550e+01	11.7991	8.619368	0.000170	1.697668	0.575185	-0.000077
1413	7.0600e+01	11.7847	8.579449	0.000175	1.751278	0.593349	-0.000080
1414	7.0650e+01	11.7510	8.541159	0.000168	1.679798	0.569131	-0.000077
1415	7.0700e+01	11.7414	8.499610	0.000182	1.822759	0.617567	-0.000083
1416	7.0750e+01	11.7398	8.462542	0.000163	1.626187	0.550967	-0.000074
1417	7.0800e+01	11.6981	8.416104	0.000204	2.037201	0.690222	-0.000093
1418	7.0850e+01	11.6756	8.380258	0.000157	1.572576	0.532803	-0.000072
1419	7.0900e+01	11.6676	8.336673	0.000191	1.912110	0.647840	-0.000087
1420	7.0950e+01	11.6435	8.297568	0.000172	1.715538	0.581240	-0.000078
1421	7.1000e+01	11.6018	8.255611	0.000184	1.840629	0.623622	-0.000084
1422	7.1050e+01	11.6066	8.209174	-0.000204	-2.037201	-0.690222	-0.000093
1423	7.1100e+01	11.6002	8.172921	0.000159	1.590447	0.538858	-0.000073
1424	7.1150e+01	11.5713	8.130150	0.000188	1.876370	0.635731	-0.000086
1425	7.1200e+01	11.5280	8.091452	0.000170	1.697668	0.575185	-0.000077
1426	7.1250e+01	11.5296	8.049089	-0.000186	-1.858499	-0.629677	-0.000085
1427	7.1300e+01	11.4671	8.005503	0.000191	1.912110	0.647840	-0.000087
1428	7.1350e+01	11.4767	7.967213	-0.000168	-1.679798	-0.569131	-0.000077
1429	7.1400e+01	11.4590	7.924849	0.000186	1.858499	0.629677	-0.000085
1430	7.1450e+01	11.4237	7.881671	0.000189	1.894240	0.641786	-0.000086
1431	7.1500e+01	11.4205	7.839715	0.000184	1.840629	0.623622	-0.000084
1432	7.1550e+01	11.3997	7.802239	0.000164	1.644057	0.557022	-0.000075
1433	7.1600e+01	11.3692	7.762320	0.000175	1.751278	0.593349	-0.000080
1434	7.1650e+01	11.3788	7.724029	-0.000168	-1.679798	-0.569131	-0.000077
1435	7.1700e+01	11.3451	7.684925	0.000172	1.715538	0.581240	-0.000078
1436	7.1750e+01	11.3355	7.640524	0.000195	1.947850	0.659950	-0.000089
1437	7.1800e+01	11.2826	7.605085	0.000155	1.554706	0.526749	-0.000071
1438	7.1850e+01	11.2874	7.561500	-0.000191	-1.912110	-0.647840	-0.000087
1439	7.1900e+01	11.2826	7.526876	0.000152	1.518966	0.514640	-0.000069
1440	7.1950e+01	11.2328	7.486549	0.000177	1.769148	0.599404	-0.000081
1441	7.2000e+01	11.2248	7.446629	0.000175	1.751278	0.593349	-0.000080
1442	7.2050e+01	11.1895	7.405080	0.000182	1.822759	0.617567	-0.000083
1443	7.2100e+01	11.2136	7.366790	-0.000168	-1.679798	-0.569131	-0.000077
1444	7.2150e+01	11.1606	7.329315	0.000164	1.644057	0.557022	-0.000075
1445	7.2200e+01	11.1382	7.284914	0.000195	1.947850	0.659950	-0.000089
1446	7.2250e+01	11.1077	7.243773	0.000180	1.804889	0.611513	-0.000082
1447	7.2300e+01	11.0804	7.204668	0.000172	1.715538	0.581240	-0.000078
1448	7.2350e+01	11.0708	7.161897	0.000188	1.876370	0.635731	-0.000086
1449	7.2400e+01	11.0756	7.124829	-0.000163	-1.626187	-0.550967	-0.000074
1450	7.2450e+01	11.0788	7.080428	-0.000195	-1.947850	-0.659950	-0.000089
1451	7.2500e+01	11.0339	7.038879	0.000182	1.822759	0.617567	-0.000083
1452	7.2550e+01	11.0018	6.997330	0.000182	1.822759	0.617567	-0.000083
1453	7.2600e+01	10.9858	6.955781	0.000182	1.822759	0.617567	-0.000083
1454	7.2650e+01	10.9794	6.913010	0.000188	1.876370	0.635731	-0.000086
1455	7.2700e+01	10.9248	6.877572	0.000155	1.554706	0.526749	-0.000071
1456	7.2750e+01	10.9184	6.827876	0.000218	2.180163	0.738659	-0.000099
1457	7.2800e+01	10.8895	6.787142	0.000179	1.787019	0.605458	-0.000081
1458	7.2850e+01	10.8719	6.742334	0.000197	1.965720	0.666004	-0.000090
1459	7.2900e+01	10.8542	6.701192	0.000180	1.804889	0.611513	-0.000082
1460	7.2950e+01	10.8286	6.660458	0.000179	1.787019	0.605458	-0.000081
1461	7.3000e+01	10.8157	6.619724	0.000179	1.787019	0.605458	-0.000081
1462	7.3050e+01	10.8061	6.572065	0.000209	2.090812	0.708386	-0.000095
1463	7.3100e+01	10.7756	6.534589	0.000164	1.644057	0.557022	-0.000075
1464	7.3150e+01	10.7660	6.485301	0.000216	2.162293	0.732605	-0.000099
1465	7.3200e+01	10.7403	6.446196	0.000172	1.715538	0.581240	-0.000078
1466	7.3250e+01	10.7179	6.398537	0.000209	2.090812	0.708386	-0.000095
1467	7.3300e+01	10.7115	6.359839	0.000170	1.697668	0.575185	-0.000077
1468	7.3350e+01	10.6794	6.315032	0.000197	1.965720	0.666004	-0.000090
1469	7.3400e+01	10.6874	6.269409	-0.000200	-2.001461	-0.678113	-0.000091
1470	7.3450e+01	10.6521	6.230304	0.000172	1.715538	0.581240	-0.000078
1471	7.3500e+01	10.6040	6.185904	0.000195	1.947850	0.659950	-0.000089
1472	7.3550e+01	10.6216	6.141911	-0.000193	-1.929980	-0.653895	-0.000088
1473	7.3600e+01	10.5703	6.096289	0.000200	2.001461	0.678113	-0.000091
1474	7.3650e+01	10.5542	6.055147	0.000180	1.804889	0.611513	-0.000082
1475	7.3700e+01	10.5350	6.010747	0.000195	1.947850	0.659950	-0.000089
1476	7.3750e+01	10.5334	5.969198	0.000182	1.822759	0.617567	-0.000083
1477	7.3800e+01	10.5093	5.926019	0.000189	1.894240	0.641786	-0.000086
1478	7.3850e+01	10.4821	5.882434	0.000191	1.912110	0.647840	-0.000087
1479	7.3900e+01	10.4596	5.841700	0.000179	1.787019	0.605458	-0.000081
1480	7.3950e+01	10.4387	5.789967	0.000227	2.269514	0.768932	-0.000103
1481	7.4000e+01	10.4307	5.752084	0.000166	1.661927	0.563076	-0.000076
1482	7.4050e+01	10.4002	5.704832	0.000207	2.072942	0.702332	-0.000095
1483	7.4100e+01	10.4002	5.659617	0.000198	1.983591	0.672059	-0.000090
1484	7.4150e+01	10.3521	5.620105	0.000173	1.733408	0.587295	-0.000079
1485	7.4200e+01	10.3553	5.574075	-0.000202	-2.019331	-0.684168	-0.000092
1486	7.4250e+01	10.3345	5.532119	0.000184	1.840629	0.623622	-0.000084
1487	7.4300e+01	10.2992	5.484053	0.000211	2.108682	0.714441	-0.000096
1488	7.4350e+01	10.2687	5.441282	0.000188	1.876370	0.635731	-0.000086
1489	7.4400e+01	10.2751	5.404621	-0.000161	-1.608317	-0.544912	-0.000073
1490	7.4450e+01	10.2302	5.354925	0.000218	2.180163	0.738659	-0.000099
1491	7.4500e+01	10.2125	5.313784	0.000180	1.804889	0.611513	-0.000082
1492	7.4550e+01	10.1676	5.271013	0.000188	1.876370	0.635731	-0.000086
1493	7.4600e+01	10.1805	5.223761	-0.000207	-2.072942	-0.702332	-0.000095
1494	7.4650e+01	10.1484	5.185471	0.000168	1.679798	0.569131	-0.000077
1495	7.4700e+01	10.1243	5.139848	0.000200	2.001461	0.678113	-0.000091
1496	7.4750e+01	10.1083	5.097485	0.000186	1.858499	0.629677	-0.000085
1497	7.4800e+01	10.1147	5.058380	-0.000172	-1.715538	-0.581240	-0.000078
1498	7.4850e+01	10.0762	5.008277	0.000220	2.198033	0.744714	-0.000100
1499	7.4900e+01	10.0617	4.966728	0.000182	1.822759	0.617567	-0.000083
1500	7.4950e+01	10.0393	4.921513	0.000198	1.983591	0.672059	-0.000090
1501	7.5000e+01	10.0265	4.874668	0.000206	2.055071	0.696277	-0.000094
1502	7.5050e+01	9.9896	4.838007	0.000161	1.608317	0.544912	-0.000073
1503	7.5100e+01	9.9799	4.795644	0.000186	1.858499	0.629677	-0.000085
1504	7.5150e+01	9.9719	4.754095	0.000182	1.822759	0.617567	-0.000083
1505	7.5200e+01	9.9334	4.707658	0.000204	2.037201	0.690222	-0.000093
1506	7.5250e+01	9.9334	4.664480	0.000189	1.894240	0.641786	-0.000086
1507	7.5300e+01	9.9029	4.620487	0.000193	1.929980	0.653895	-0.000088
1508	7.5350e+01	9.8933	4.578123	0.000186	1.858499	0.629677	-0.000085
1509	7.5400e+01	9.8339	4.531686	0.000204	2.037201	0.690222	-0.000093
1510	7.5450e+01	9.8339	4.489322	0.000186	1.858499	0.629677	-0.000085
1511	7.5500e+01	9.8291	4.449403	0.000175	1.751278	0.593349	-0.000080
1512	7.5550e+01	9.8051	4.407039	0.000186	1.858499	0.629677	-0.000085
1513	7.5600e+01	9.7890	4.360602	0.000204	2.037201	0.690222	-0.000093
1514	7.5650e+01	9.7569	4.320275	0.000177	1.769148	0.599404	-0.000081
1515	7.5700e+01	9.7345	4.277504	0.000188	1.876370	0.635731	-0.000086
1516	7.5750e+01	9.7233	4.231474	0.000202	2.019331	0.684168	-0.000092
1517	7.5800e+01	9.6783	4.187481	0.000193	1.929980	0.653895	-0.000088
1518	7.5850e+01	9.6992	4.143488	-0.000193	-1.929980	-0.653895	-0.000088
1519	7.5900e+01	9.6575	4.103569	0.000175	1.751278	0.593349	-0.000080
1520	7.5950e+01	9.6302	4.058354	0.000198	1.983591	0.672059	-0.000090
1521	7.6000e+01	9.6238	4.012731	0.000200	2.001461	0.678113	-0.000091
1522	7.6050e+01	9.5933	3.968331	0.000195	1.947850	0.659950	-0.000089
1523	7.6100e+01	9.5869	3.922301	0.000202	2.019331	0.684168	-0.000092
1524	7.6150e+01	9.5500	3.884011	0.000168	1.679798	0.569131	-0.000077
1525	7.6200e+01	9.5436	3.837167	0.000206	2.055071	0.696277	-0.000094
1526	7.6250e+01	9.5195	3.793174	0.000193	1.929980	0.653895	-0.000088
1527	7.6300e+01	9.4874	3.744293	0.000214	2.144422	0.726550	-0.000098
1528	7.6350e+01	9.5003	3.706410	-0.000166	-1.661927	-0.563076	-0.000076
1529	7.6400e+01	9.4521	3.662417	0.000193	1.929980	0.653895	-0.000088
1530	7.6450e+01	9.4120	3.619239	0.000189	1.894240	0.641786	-0.000086
1531	7.6500e+01	9.4329	3.569135	-0.000220	-2.198033	-0.744714	-0.000100
1532	7.6550e+01	9.3912	3.529623	0.000173	1.733408	0.587295	-0.000079
1533	7.6600e+01	9.3591	3.479520	0.000220	2.198033	0.744714	-0.000100
1534	7.6650e+01	9.3495	3.444489	0.000154	1.536836	0.520694	-0.000070
1535	7.6700e+01	9.3687	3.395200	-0.000216	-2.162293	-0.732605	-0.000099
1536	7.6750e+01	9.3206	3.353651	0.000182	1.822759	0.617567	-0.000083
1537	7.6800e+01	9.3302	3.306807	-0.000206	-2.055071	-0.696277	-0.000094
1538	7.6850e+01	9.2853	3.261999	0.000197	1.965720	0.666004	-0.000090
1539	7.6900e+01	9.2725	3.220043	0.000184	1.840629	0.623622	-0.000084
1540	7.6950e+01	9.2516	3.173606	0.000204	2.037201	0.690222	-0.000093
1541	7.7000e+01	9.2275	3.129205	0.000195	1.947850	0.659950	-0.000089
1542	7.7050e+01	9.2067	3.080732	0.000213	2.126552	0.720495	-0.000097
1543	7.7100e+01	9.1890	3.037146	0.000191	1.912110	0.647840	-0.000087
1544	7.7150e+01	9.1634	2.993560	0.000191	1.912110	0.647840	-0.000087
1545	7.7200e+01	9.1521	2.948753	0.000197	1.965720	0.666004	-0.000090
1546	7.7250e+01	9.1169	2.909648	0.000172	1.715538	0.581240	-0.000078
1547	7.7300e+01	9.1297	2.864025	-0.000200	-2.001461	-0.678113	-0.000091
1548	7.7350e+01	9.0864	2.819625	0.000195	1.947850	0.659950	-0.000089
1549	7.7400e+01	9.0607	2.770337	0.000216	2.162293	0.732605	-0.000099
1550	7.7450e+01	9.0382	2.726751	0.000191	1.912110	0.647840	-0.000087
1551	7.7500e+01	9.0158	2.680314	0.000204	2.037201	0.690222	-0.000093
1552	7.7550e+01	9.0030	2.636321	0.000193	1.929980	0.653895	-0.000088
1553	7.7600e+01	8.9741	2.593957	0.000186	1.858499	0.629677	-0.000085
1554	7.7650e+01	8.9548	2.546298	0.000209	2.090812	0.708386	-0.000095
1555	7.7700e+01	8.9179	2.503935	0.000186	1.858499	0.629677	-0.000085
1556	7.7750e+01	8.9227	2.459127	-0.000197	-1.965720	-0.666004	-0.000090
1557	7.7800e+01	8.8955	2.411061	0.000211	2.108682	0.714441	-0.000096
1558	7.7850e+01	8.8570	2.367882	0.000189	1.894240	0.641786	-0.000086
1559	7.7900e+01	8.8682	2.323482	-0.000195	-1.947850	-0.659950	-0.000089
1560	7.7950e+01	8.8393	2.278674	0.000197	1.965720	0.666004	-0.000090
1561	7.8000e+01	8.8345	2.225720	0.000232	2.323124	0.787096	-0.000106
1562	7.8050e+01	8.8249	2.184985	0.000179	1.787019	0.605458	-0.000081
1563	7.8100e+01	8.7703	2.140585	0.000195	1.947850	0.659950	-0.000089
1564	7.8150e+01	8.7607	2.098221	0.000186	1.858499	0.629677	-0.000085
1565	7.8200e+01	8.7511	2.050970	0.000207	2.072942	0.702332	-0.000095
1566	7.8250e+01	8.6998	2.013902	0.000163	1.626187	0.550967	-0.000074
1567	7.8300e+01	8.7094	1.967872	-0.000202	-2.019331	-0.684168	-0.000092
1568	7.8350e+01	8.6757	1.921435	0.000204	2.037201	0.690222	-0.000093
1569	7.8400e+01	8.6677	1.873368	0.000211	2.108682	0.714441	-0.000096
1570	7.8450e+01	8.6564	1.826117	0.000207	2.072942	0.702332	-0.000095
1571	7.8500e+01	8.6163	1.782531	0.000191	1.912110	0.647840	-0.000087
1572	7.8550e+01	8.5859	1.739353	0.000189	1.894240	0.641786	-0.000086
1573	7.8600e+01	8.5634	1.700655	0.000170	1.697668	0.575185	-0.000077
1574	7.8650e+01	8.5522	1.650552	0.000220	2.198033	0.744714	-0.000100
1575	7.8700e+01	8.5522	1.606152	0.000195	1.947850	0.659950	-0.000089
1576	7.8750e+01	8.5169	1.558085	0.000211	2.108682	0.714441	-0.000096
1577	7.8800e+01	8.5024	1.512463	0.000200	2.001461	0.678113	-0.000091
1578	7.8850e+01	8.4928	1.470099	0.000186	1.858499	0.629677	-0.000085
1579	7.8900e+01	8.4623	1.422440	0.000209	2.090812	0.708386	-0.000095
1580	7.8950e+01	8.4431	1.375188	0.000207	2.072942	0.702332	-0.000095
1581	7.9000e+01	8.4335	1.331603	0.000191	1.912110	0.647840	-0.000087
1582	7.9050e+01	8.4142	1.287610	0.000193	1.929980	0.653895	-0.000088
1583	7.9100e+01	8.3709	1.242802	0.000197	1.965720	0.666004	-0.000090
1584	7.9150e+01	8.3629	1.195958	0.000206	2.055071	0.696277	-0.000094
1585	7.9200e+01	8.3452	1.151150	0.000197	1.965720	0.666004	-0.000090
1586	7.9250e+01	8.3244	1.101454	0.000218	2.180163	0.738659	-0.000099
1587	7.9300e+01	8.3083	1.060313	0.000180	1.804889	0.611513	-0.000082
1588	7.9350e+01	8.2827	1.007358	0.000232	2.323124	0.787096	-0.000106
1589	7.9400e+01	8.2538	0.969475	0.000166	1.661927	0.563076	-0.000076
1590	7.9450e+01	8.2538	0.923446	0.000202	2.019331	0.684168	-0.000092
1591	7.9500e+01	8.2105	0.878231	0.000198	1.983591	0.672059	-0.000090
1592	7.9550e+01	8.1928	0.831386	0.000206	2.055071	0.696277	-0.000094
1593	7.9600e+01	8.1832	0.785764	0.000200	2.001461	0.678113	-0.000091
1594	7.9650e+01	8.1784	0.739734	0.000202	2.019331	0.684168	-0.000092
1595	7.9700e+01	8.1383	0.690853	0.000214	2.144422	0.726550	-0.000098
1596	7.9750e+01	8.1254	0.643601	0.000207	2.072942	0.702332	-0.000095
1597	7.9800e+01	8.0998	0.600423	0.000189	1.894240	0.641786	-0.000086
1598	7.9850e+01	8.0821	0.556023	0.000195	1.947850	0.659950	-0.000089
1599	7.9900e+01	8.0516	0.507549	0.000213	2.126552	0.720495	-0.000097
1600	7.9950e+01	8.0324	0.463963	0.000191	1.912110	0.647840	-0.000087
1601	8.0000e+01	8.0244	0.414267	0.000218	2.180163	0.738659	-0.000099
1602	8.0050e+01	8.0019	0.365794	0.000213	2.126552	0.720495	-0.000097
1603	8.0100e+01	7.9891	0.319357	0.000204	2.037201	0.690222	-0.000093
1604	8.0150e+01	7.9618	0.266402	0.000232	2.323124	0.787096	-0.000106
1605	8.0200e+01	7.9377	0.221594	0.000197	1.965720	0.666004	-0.000090
1606	8.0250e+01	7.9217	0.173121	0.000213	2.126552	0.720495	-0.000097
1607	8.0300e+01	7.8784	0.128720	0.000195	1.947850	0.659950	-0.000089
1608	8.0350e+01	7.8800	0.086764	-0.000184	-1.840629	-0.623622	-0.000084
1609	8.0400e+01	7.8495	0.034624	0.000229	2.287384	0.774987	-0.000104
1610	8.0450e+01	7.8399	-0.010998	0.000200	2.001461	0.678113	-0.000091
1611	8.0500e+01	7.8206	-0.059879	0.000214	2.144422	0.726550	-0.000098
1612	8.0550e+01	7.8158	-0.110390	0.000222	2.215903	0.750768	-0.000101
1613	8.0600e+01	7.7773	-0.158049	0.000209	2.090812	0.708386	-0.000095
1614	8.0650e+01	7.7821	-0.207337	-0.000216	-2.162293	-0.732605	-0.000099
1615	8.0700e+01	7.7308	-0.248886	0.000182	1.822759	0.617567	-0.000083
1616	8.0750e+01	7.7196	-0.298175	0.000216	2.162293	0.732605	-0.000099
1617	8.0800e+01	7.6891	-0.344612	0.000204	2.037201	0.690222	-0.000093
1618	8.0850e+01	7.7164	-0.393493	-0.000214	-2.144422	-0.726550	-0.000098
1619	8.0900e+01	7.6650	-0.441152	0.000209	2.090812	0.708386	-0.000095
1620	8.0950e+01	7.6458	-0.490440	0.000216	2.162293	0.732605	-0.000099
1621	8.1000e+01	7.6361	-0.532804	0.000186	1.858499	0.629677	-0.000085
1622	8.1050e+01	7.6009	-0.581685	0.000214	2.144422	0.726550	-0.000098
1623	8.1100e+01	7.5928	-0.626493	0.000197	1.965720	0.666004	-0.000090
1624	8.1150e+01	7.5864	-0.669264	0.000188	1.876370	0.635731	-0.000086
1625	8.1200e+01	7.5431	-0.713257	0.000193	1.929980	0.653895	-0.000088
1626	8.1250e+01	7.5463	-0.760101	-0.000206	-2.055071	-0.696277	-0.000094
1627	8.1300e+01	7.5190	-0.804094	0.000193	1.929980	0.653895	-0.000088
1628	8.1350e+01	7.4613	-0.857049	0.000232	2.323124	0.787096	-0.000106
1629	8.1400e+01	7.4725	-0.901856	-0.000197	-1.965720	-0.666004	-0.000090
1630	8.1450e+01	7.4292	-0.946257	0.000195	1.947850	0.659950	-0.000089
1631	8.1500e+01	7.4372	-0.993508	-0.000207	-2.072942	-0.702332	-0.000095
1632	8.1550e+01	7.3907	-1.037909	0.000195	1.947850	0.659950	-0.000089
1633	8.1600e+01	7.3554	-1.080272	0.000186	1.858499	0.629677	-0.000085
1634	8.1650e+01	7.3859	-1.120599	-0.000177	-1.769148	-0.599404	-0.000081
1635	8.1700e+01	7.3426	-1.174369	0.000236	2.358865	0.799205	-0.000108
1636	8.1750e+01	7.3233	-1.221213	0.000206	2.055071	0.696277	-0.000094
1637	8.1800e+01	7.2993	-1.271316	0.000220	2.198033	0.744714	-0.000100
1638	8.1850e+01	7.2736	-1.314087	0.000188	1.876370	0.635731	-0.000086
1639	8.1900e+01	7.2575	-1.362968	0.000214	2.144422	0.726550	-0.000098
1640	8.1950e+01	7.2319	-1.411442	0.000213	2.126552	0.720495	-0.000097
1641	8.2000e+01	7.2303	-1.455435	0.000193	1.929980	0.653895	-0.000088
1642	8.2050e+01	7.2190	-1.503501	0.000211	2.108682	0.714441	-0.000096
1643	8.2100e+01	7.1822	-1.550753	0.000207	2.072942	0.702332	-0.000095
1644	8.2150e+01	7.1485	-1.597190	0.000204	2.037201	0.690222	-0.000093
1645	8.2200e+01	7.1180	-1.643220	0.000202	2.019331	0.684168	-0.000092
1646	8.2250e+01	7.1180	-1.687620	0.000195	1.947850	0.659950	-0.000089
1647	8.2300e+01	7.0795	-1.736909	0.000216	2.162293	0.732605	-0.000099
1648	8.2350e+01	7.0827	-1.785790	-0.000214	-2.144422	-0.726550	-0.000098
1649	8.2400e+01	7.0490	-1.831819	0.000202	2.019331	0.684168	-0.000092
1650	8.2450e+01	7.0217	-1.877849	0.000202	2.019331	0.684168	-0.000092
1651	8.2500e+01	7.0185	-1.922250	0.000195	1.947850	0.659950	-0.000089
1652	8.2550e+01	7.0153	-1.967057	0.000197	1.965720	0.666004	-0.000090
1653	8.2600e+01	6.9896	-2.015938	0.000214	2.144422	0.726550	-0.000098
1654	8.2650e+01	6.9592	-2.064819	0.000214	2.144422	0.726550	-0.000098
1655	8.2700e+01	6.9319	-2.112886	0.000211	2.108682	0.714441	-0.000096
1656	8.2750e+01	6.9175	-2.157693	0.000197	1.965720	0.666004	-0.000090
1657	8.2800e+01	6.9078	-2.203723	0.000202	2.019331	0.684168	-0.000092
1658	8.2850e+01	6.8677	-2.251382	0.000209	2.090812	0.708386	-0.000095
1659	8.2900e+01	6.8757	-2.295375	-0.000193	-1.929980	-0.653895	-0.000088
1660	8.2950e+01	6.8244	-2.338554	0.000189	1.894240	0.641786	-0.000086
1661	8.3000e+01	6.8276	-2.391101	-0.000231	-2.305254	-0.781041	-0.000105
1662	8.3050e+01	6.8148	-2.437538	0.000204	2.037201	0.690222	-0.000093
1663	8.3100e+01	6.7715	-2.484382	0.000206	2.055071	0.696277	-0.000094
1664	8.3150e+01	6.7458	-2.531634	0.000207	2.072942	0.702332	-0.000095
1665	8.3200e+01	6.7378	-2.578886	0.000207	2.072942	0.702332	-0.000095
1666	8.3250e+01	6.7153	-2.626952	0.000211	2.108682	0.714441	-0.000096
1667	8.3300e+01	6.6929	-2.679092	0.000229	2.287384	0.774987	-0.000104
1668	8.3350e+01	6.6993	-2.722678	-0.000191	-1.912110	-0.647840	-0.000087
1669	8.3400e+01	6.6608	-2.767485	0.000197	1.965720	0.666004	-0.000090
1670	8.3450e+01	6.6431	-2.815144	0.000209	2.090812	0.708386	-0.000095
1671	8.3500e+01	6.6319	-2.860767	0.000200	2.001461	0.678113	-0.000091
1672	8.3550e+01	6.6110	-2.906796	0.000202	2.019331	0.684168	-0.000092
1673	8.3600e+01	6.5629	-2.959751	0.000232	2.323124	0.787096	-0.000106
1674	8.3650e+01	6.5661	-3.011076	-0.000225	-2.251643	-0.762877	-0.000103
1675	8.3700e+01	6.5645	-3.057106	0.000202	2.019331	0.684168	-0.000092
1676	8.3750e+01	6.5164	-3.107209	0.000220	2.198033	0.744714	-0.000100
1677	8.3800e+01	6.5052	-3.149165	0.000184	1.840629	0.623622	-0.000084
1678	8.3850e+01	6.4795	-3.196010	0.000206	2.055071	0.696277	-0.000094
1679	8.3900e+01	6.4570	-3.242447	0.000204	2.037201	0.690222	-0.000093
1680	8.3950e+01	6.4410	-3.290106	0.000209	2.090812	0.708386	-0.000095
1681	8.4000e+01	6.4201	-3.342246	0.000229	2.287384	0.774987	-0.000104
1682	8.4050e+01	6.4073	-3.385424	0.000189	1.894240	0.641786	-0.000086
1683	8.4100e+01	6.3800	-3.436342	0.000223	2.233773	0.756823	-0.000102
1684	8.4150e+01	6.3415	-3.487260	0.000223	2.233773	0.756823	-0.000102
1685	8.4200e+01	6.3624	-3.536141	-0.000214	-2.144422	-0.726550	-0.000098
1686	8.4250e+01	6.3159	-3.580948	0.000197	1.965720	0.666004	-0.000090
1687	8.4300e+01	6.3207	-3.627793	-0.000206	-2.055071	-0.696277	-0.000094
1688	8.4350e+01	6.2854	-3.676674	0.000214	2.144422	0.726550	-0.000098
1689	8.4400e+01	6.2790	-3.725962	0.000216	2.162293	0.732605	-0.000099
1690	8.4450e+01	6.2661	-3.773621	0.000209	2.090812	0.708386	-0.000095
1691	8.4500e+01	6.2212	-3.824132	0.000222	2.215903	0.750768	-0.000101
1692	8.4550e+01	6.2148	-3.875457	0.000225	2.251643	0.762877	-0.000103
1693	8.4600e+01	6.1859	-3.915784	0.000177	1.769148	0.599404	-0.000081
1694	8.4650e+01	6.1506	-3.968331	0.000231	2.305254	0.781041	-0.000105
1695	8.4700e+01	6.1474	-4.013546	0.000198	1.983591	0.672059	-0.000090
1696	8.4750e+01	6.1522	-4.067723	-0.000238	-2.376735	-0.805260	-0.000108
1697	8.4800e+01	6.0881	-4.114974	0.000207	2.072942	0.702332	-0.000095
1698	8.4850e+01	6.0704	-4.161819	0.000206	2.055071	0.696277	-0.000094
1699	8.4900e+01	6.0752	-4.211922	-0.000220	-2.198033	-0.744714	-0.000100
1700	8.4950e+01	6.0351	-4.262432	0.000222	2.215903	0.750768	-0.000101
1701	8.5000e+01	6.0191	-4.312943	0.000222	2.215903	0.750768	-0.000101
1702	8.5050e+01	6.0030	-4.362231	0.000216	2.162293	0.732605	-0.000099
1703	8.5100e+01	5.9758	-4.403780	0.000182	1.822759	0.617567	-0.000083
1704	8.5150e+01	5.9838	-4.452661	-0.000214	-2.144422	-0.726550	-0.000098
1705	8.5200e+01	5.9694	-4.501135	0.000213	2.126552	0.720495	-0.000097
1706	8.5250e+01	5.9180	-4.551238	0.000220	2.198033	0.744714	-0.000100
1707	8.5300e+01	5.9068	-4.605415	0.000238	2.376735	0.805260	-0.000108
1708	8.5350e+01	5.8779	-4.650630	0.000198	1.983591	0.672059	-0.000090
1709	8.5400e+01	5.8458	-4.702362	0.000227	2.269514	0.768932	-0.000103
1710	8.5450e+01	5.8458	-4.749614	0.000207	2.072942	0.702332	-0.000095
1711	8.5500e+01	5.8169	-4.801754	0.000229	2.287384	0.774987	-0.000104
1712	8.5550e+01	5.7688	-4.840044	0.000168	1.679798	0.569131	-0.000077
1713	8.5600e+01	5.7768	-4.894221	-0.000238	-2.376735	-0.805260	-0.000108
1714	8.5650e+01	5.7640	-4.943917	0.000218	2.180163	0.738659	-0.000099
1715	8.5700e+01	5.7528	-4.995242	0.000225	2.251643	0.762877	-0.000103
1716	8.5750e+01	5.7335	-5.045345	0.000220	2.198033	0.744714	-0.000100
1717	8.5800e+01	5.6918	-5.092189	0.000206	2.055071	0.696277	-0.000094
1718	8.5850e+01	5.6613	-5.142700	0.000222	2.215903	0.750768	-0.000101
1719	8.5900e+01	5.6758	-5.191173	-0.000213	-2.126552	-0.720495	-0.000097
1720	8.5950e+01	5.6469	-5.243313	0.000229	2.287384	0.774987	-0.000104
1721	8.6000e+01	5.6309	-5.288936	0.000200	2.001461	0.678113	-0.000091
1722	8.6050e+01	5.6196	-5.341483	0.000231	2.305254	0.781041	-0.000105
1723	8.6100e+01	5.5683	-5.390771	0.000216	2.162293	0.732605	-0.000099
1724	8.6150e+01	5.5795	-5.439245	-0.000213	-2.126552	-0.720495	-0.000097
1725	8.6200e+01	5.5426	-5.487719	0.000213	2.126552	0.720495	-0.000097
1726	8.6250e+01	5.5218	-5.536193	0.000213	2.126552	0.720495	-0.000097
1727	8.6300e+01	5.4704	-5.587110	0.000223	2.233773	0.756823	-0.000102
1728	8.6350e+01	5.4752	-5.636399	-0.000216	-2.162293	-0.732605	-0.000099
1729	8.6400e+01	5.4672	-5.690168	0.000236	2.358865	0.799205	-0.000108
1730	8.6450e+01	5.4416	-5.736605	0.000204	2.037201	0.690222	-0.000093
1731	8.6500e+01	5.4063	-5.788338	0.000227	2.269514	0.768932	-0.000103
1732	8.6550e+01	5.3902	-5.836811	0.000213	2.126552	0.720495	-0.000097
1733	8.6600e+01	5.3678	-5.886507	0.000218	2.180163	0.738659	-0.000099
1734	8.6650e+01	5.3790	-5.935388	-0.000214	-2.144422	-0.726550	-0.000098
1735	8.6700e+01	5.3549	-5.985491	0.000220	2.198033	0.744714	-0.000100
1736	8.6750e+01	5.3180	-6.038853	0.000234	2.340994	0.793150	-0.000107
1737	8.6800e+01	5.3100	-6.093845	0.000241	2.412475	0.817369	-0.000110
1738	8.6850e+01	5.2876	-6.138245	0.000195	1.947850	0.659950	-0.000089
1739	8.6900e+01	5.2442	-6.192421	0.000238	2.376735	0.805260	-0.000108
1740	8.6950e+01	5.2314	-6.237229	0.000197	1.965720	0.666004	-0.000090
1741	8.7000e+01	5.2202	-6.288962	0.000227	2.269514	0.768932	-0.000103
1742	8.7050e+01	5.1945	-6.337028	0.000211	2.108682	0.714441	-0.000096
1743	8.7100e+01	5.1737	-6.390797	0.000236	2.358865	0.799205	-0.000108
1744	8.7150e+01	5.1464	-6.441715	0.000223	2.233773	0.756823	-0.000102
1745	8.7200e+01	5.1432	-6.488152	0.000204	2.037201	0.690222	-0.000093
1746	8.7250e+01	5.1255	-6.541921	0.000236	2.358865	0.799205	-0.000108
1747	8.7300e+01	5.1127	-6.591210	0.000216	2.162293	0.732605	-0.000099
1748	8.7350e+01	5.0902	-6.637240	0.000202	2.019331	0.684168	-0.000092
1749	8.7400e+01	5.0726	-6.692638	0.000243	2.430345	0.823423	-0.000111
1750	8.7450e+01	5.0132	-6.742741	0.000220	2.198033	0.744714	-0.000100
1751	8.7500e+01	5.0084	-6.790400	0.000209	2.090812	0.708386	-0.000095
1752	8.7550e+01	4.9924	-6.844984	0.000239	2.394605	0.811314	-0.000109
1753	8.7600e+01	4.9715	-6.894680	0.000218	2.180163	0.738659	-0.000099
1754	8.7650e+01	4.9988	-6.947227	-0.000231	-2.305254	-0.781041	-0.000105
1755	8.7700e+01	4.9571	-6.999774	0.000231	2.305254	0.781041	-0.000105
1756	8.7750e+01	4.9234	-7.045397	0.000200	2.001461	0.678113	-0.000091
1757	8.7800e+01	4.8833	-7.093056	0.000209	2.090812	0.708386	-0.000095
1758	8.7850e+01	4.8897	-7.145603	-0.000231	-2.305254	-0.781041	-0.000105
1759	8.7900e+01	4.8496	-7.197743	0.000229	2.287384	0.774987	-0.000104
1760	8.7950e+01	4.8271	-7.251105	0.000234	2.340994	0.793150	-0.000107
1761	8.8000e+01	4.8223	-7.300801	0.000218	2.180163	0.738659	-0.000099
1762	8.8050e+01	4.7806	-7.352940	0.000229	2.287384	0.774987	-0.000104
1763	8.8100e+01	4.7726	-7.401414	0.000213	2.126552	0.720495	-0.000097
1764	8.8150e+01	4.7934	-7.452332	-0.000223	-2.233773	-0.756823	-0.000102
1765	8.8200e+01	4.7598	-7.501620	0.000216	2.162293	0.732605	-0.000099
1766	8.8250e+01	4.7325	-7.550502	0.000214	2.144422	0.726550	-0.000098
1767	8.8300e+01	4.6956	-7.606307	0.000245	2.448216	0.829478	-0.000112
1768	8.8350e+01	4.6795	-7.656003	0.000218	2.180163	0.738659	-0.000099
1769	8.8400e+01	4.6667	-7.705292	0.000216	2.162293	0.732605	-0.000099
1770	8.8450e+01	4.6202	-7.754580	0.000216	2.162293	0.732605	-0.000099
1771	8.8500e+01	4.6266	-7.807535	-0.000232	-2.323124	-0.787096	-0.000106
1772	8.8550e+01	4.5993	-7.853972	0.000204	2.037201	0.690222	-0.000093
1773	8.8600e+01	4.5624	-7.900001	0.000202	2.019331	0.684168	-0.000092
1774	8.8650e+01	4.5705	-7.950919	-0.000223	-2.233773	-0.756823	-0.000102
1775	8.8700e+01	4.5448	-7.998171	0.000207	2.072942	0.702332	-0.000095
1776	8.8750e+01	4.5368	-8.053570	0.000243	2.430345	0.823423	-0.000111
1777	8.8800e+01	4.5175	-8.095933	0.000186	1.858499	0.629677	-0.000085
1778	8.8850e+01	4.4838	-8.151332	0.000243	2.430345	0.823423	-0.000111
1779	8.8900e+01	4.4662	-8.201842	0.000222	2.215903	0.750768	-0.000101
1780	8.8950e+01	4.4437	-8.254797	0.000232	2.323124	0.787096	-0.000106
1781	8.9000e+01	4.4293	-8.305715	0.000223	2.233773	0.756823	-0.000102
1782	8.9050e+01	4.4020	-8.352152	0.000204	2.037201	0.690222	-0.000093
1783	8.9100e+01	4.3908	-8.402255	0.000220	2.198033	0.744714	-0.000100
1784	8.9150e+01	4.3844	-8.453580	0.000225	2.251643	0.762877	-0.000103
1785	8.9200e+01	4.3443	-8.504905	0.000225	2.251643	0.762877	-0.000103
1786	8.9250e+01	4.3122	-8.561118	0.000247	2.466086	0.835532	-0.000112
1787	8.9300e+01	4.3026	-8.612851	0.000227	2.269514	0.768932	-0.000103
1788	8.9350e+01	4.2608	-8.660510	0.000209	2.090812	0.708386	-0.000095
1789	8.9400e+01	4.2592	-8.719167	0.000257	2.573307	0.871860	-0.000117
1790	8.9450e+01	4.2528	-8.770900	0.000227	2.269514	0.768932	-0.000103
1791	8.9500e+01	4.2159	-8.821003	0.000220	2.198033	0.744714	-0.000100
1792	8.9550e+01	4.2063	-8.876809	0.000245	2.448216	0.829478	-0.000112
1793	8.9600e+01	4.1790	-8.926505	0.000218	2.180163	0.738659	-0.000099
1794	8.9650e+01	4.1502	-8.979867	0.000234	2.340994	0.793150	-0.000107
1795	8.9700e+01	4.1485	-9.034450	0.000239	2.394605	0.811314	-0.000109
1796	8.9750e+01	4.1421	-9.087812	0.000234	2.340994	0.793150	-0.000107
1797	8.9800e+01	4.1052	-9.144026	0.000247	2.466086	0.835532	-0.000112
1798	8.9850e+01	4.0780	-9.193314	0.000216	2.162293	0.732605	-0.000099
1799	8.9900e+01	4.0539	-9.246269	0.000232	2.323124	0.787096	-0.000106
1800	8.9950e+01	4.0475	-9.291076	0.000197	1.965720	0.666004	-0.000090
1801	9.0000e+01	4.0250	-9.347290	0.000247	2.466086	0.835532	-0.000112
1802	9.0050e+01	3.9961	-9.409206	0.000272	2.716268	0.920297	-0.000124
1803	9.0100e+01	3.9641	-9.463382	0.000238	2.376735	0.805260	-0.000108
1804	9.0150e+01	3.9576	-9.515115	0.000227	2.269514	0.768932	-0.000103
1805	9.0200e+01	3.9480	-9.569699	0.000239	2.394605	0.811314	-0.000109
1806	9.0250e+01	3.9159	-9.619802	0.000220	2.198033	0.744714	-0.000100
1807	9.0300e+01	3.9143	-9.675200	0.000243	2.430345	0.823423	-0.000111
1808	9.0350e+01	3.8758	-9.729784	0.000239	2.394605	0.811314	-0.000109
1809	9.0400e+01	3.8742	-9.777443	0.000209	2.090812	0.708386	-0.000095
1810	9.0450e+01	3.8630	-9.832027	0.000239	2.394605	0.811314	-0.000109
1811	9.0500e+01	3.8068	-9.889462	0.000252	2.519696	0.853696	-0.000115
1812	9.0550e+01	3.8101	-9.944454	-0.000241	-2.412475	-0.817369	-0.000110
1813	9.0600e+01	3.7651	-9.996186	0.000227	2.269514	0.768932	-0.000103
1814	9.0650e+01	3.7555	-10.047919	0.000227	2.269514	0.768932	-0.000103
1815	9.0700e+01	3.7234	-10.102910	0.000241	2.412475	0.817369	-0.000110
1816	9.0750e+01	3.7379	-10.157087	-0.000238	-2.376735	-0.805260	-0.000108
1817	9.0800e+01	3.7010	-10.211263	0.000238	2.376735	0.805260	-0.000108
1818	9.0850e+01	3.6528	-10.267476	0.000247	2.466086	0.835532	-0.000112
1819	9.0900e+01	3.6657	-10.324097	-0.000248	-2.483956	-0.841587	-0.000113
1820	9.0950e+01	3.6368	-10.375829	0.000227	2.269514	0.768932	-0.000103
1821	9.1000e+01	3.6095	-10.431228	0.000243	2.430345	0.823423	-0.000111
1822	9.1050e+01	3.6047	-10.487849	0.000248	2.483956	0.841587	-0.000113
1823	9.1100e+01	3.5758	-10.540803	0.000232	2.323124	0.787096	-0.000106
1824	9.1150e+01	3.5630	-10.599868	0.000259	2.591177	0.877915	-0.000118
1825	9.1200e+01	3.5518	-10.643046	0.000189	1.894240	0.641786	-0.000086
1826	9.1250e+01	3.5325	-10.696001	0.000232	2.323124	0.787096	-0.000106
1827	9.1300e+01	3.4956	-10.748955	0.000232	2.323124	0.787096	-0.000106
1828	9.1350e+01	3.4796	-10.802317	0.000234	2.340994	0.793150	-0.000107
1829	9.1400e+01	3.4523	-10.861382	0.000259	2.591177	0.877915	-0.000118
1830	9.1450e+01	3.4395	-10.911485	0.000220	2.198033	0.744714	-0.000100
1831	9.1500e+01	3.4202	-10.970957	0.000261	2.609047	0.883969	-0.000119
1832	9.1550e+01	3.3946	-11.024726	0.000236	2.358865	0.799205	-0.000108
1833	9.1600e+01	3.3930	-11.082976	0.000256	2.555437	0.865805	-0.000116
1834	9.1650e+01	3.3480	-11.133487	0.000222	2.215903	0.750768	-0.000101
1835	9.1700e+01	3.3496	-11.178294	-0.000197	-1.965720	-0.666004	-0.000090
1836	9.1750e+01	3.3143	-11.231656	0.000234	2.340994	0.793150	-0.000107
1837	9.1800e+01	3.3176	-11.284203	-0.000231	-2.305254	-0.781041	-0.000105
1838	9.1850e+01	3.2630	-11.342861	0.000257	2.573307	0.871860	-0.000117
1839	9.1900e+01	3.2646	-11.399074	-0.000247	-2.466086	-0.835532	-0.000112
1840	9.1950e+01	3.2582	-11.457324	0.000256	2.555437	0.865805	-0.000116
1841	9.2000e+01	3.2229	-11.507020	0.000218	2.180163	0.738659	-0.000099
1842	9.2050e+01	3.1876	-11.566084	0.000259	2.591177	0.877915	-0.000118
1843	9.2100e+01	3.1828	-11.614151	0.000211	2.108682	0.714441	-0.000096
1844	9.2150e+01	3.1635	-11.669549	0.000243	2.430345	0.823423	-0.000111
1845	9.2200e+01	3.1571	-11.722504	0.000232	2.323124	0.787096	-0.000106
1846	9.2250e+01	3.1090	-11.774644	0.000229	2.287384	0.774987	-0.000104
1847	9.2300e+01	3.1026	-11.830042	0.000243	2.430345	0.823423	-0.000111
1848	9.2350e+01	3.0994	-11.886663	0.000248	2.483956	0.841587	-0.000113
1849	9.2400e+01	3.0721	-11.942062	0.000243	2.430345	0.823423	-0.000111
1850	9.2450e+01	3.0352	-11.994609	0.000231	2.305254	0.781041	-0.000105
1851	9.2500e+01	3.0304	-12.047971	0.000234	2.340994	0.793150	-0.000107
1852	9.2550e+01	2.9823	-12.101333	0.000234	2.340994	0.793150	-0.000107
1853	9.2600e+01	2.9871	-12.155916	-0.000239	-2.394605	-0.811314	-0.000109
1854	9.2650e+01	2.9726	-12.214574	0.000257	2.573307	0.871860	-0.000117
1855	9.2700e+01	2.9438	-12.267528	0.000232	2.323124	0.787096	-0.000106
1856	9.2750e+01	2.9197	-12.316409	0.000214	2.144422	0.726550	-0.000098
1857	9.2800e+01	2.9117	-12.380770	0.000282	2.823489	0.956624	-0.000129
1858	9.2850e+01	2.8812	-12.434131	0.000234	2.340994	0.793150	-0.000107
1859	9.2900e+01	2.8636	-12.485049	0.000223	2.233773	0.756823	-0.000102
1860	9.2950e+01	2.8523	-12.547780	0.000275	2.752009	0.932406	-0.000125
1861	9.3000e+01	2.8234	-12.591366	0.000191	1.912110	0.647840	-0.000087
1862	9.3050e+01	2.7914	-12.646357	0.000241	2.412475	0.817369	-0.000110
1863	9.3100e+01	2.7689	-12.705829	0.000261	2.609047	0.883969	-0.000119
1864	9.3150e+01	2.7529	-12.763264	0.000252	2.519696	0.853696	-0.000115
1865	9.3200e+01	2.7801	-12.817848	-0.000239	-2.394605	-0.811314	-0.000109
1866	9.3250e+01	2.7224	-12.875283	0.000252	2.519696	0.853696	-0.000115
1867	9.3300e+01	2.7208	-12.930275	0.000241	2.412475	0.817369	-0.000110
1868	9.3350e+01	2.6791	-12.985266	0.000241	2.412475	0.817369	-0.000110
1869	9.3400e+01	2.6823	-13.043923	-0.000257	-2.573307	-0.871860	-0.000117
1870	9.3450e+01	2.6374	-13.097285	0.000234	2.340994	0.793150	-0.000107
1871	9.3500e+01	2.6438	-13.153498	-0.000247	-2.466086	-0.835532	-0.000112
1872	9.3550e+01	2.6053	-13.204416	0.000223	2.233773	0.756823	-0.000102
1873	9.3600e+01	2.5636	-13.256556	0.000229	2.287384	0.774987	-0.000104
1874	9.3650e+01	2.5732	-13.318065	-0.000270	-2.698398	-0.914242	-0.000123
1875	9.3700e+01	2.5202	-13.375500	0.000252	2.519696	0.853696	-0.000115
1876	9.3750e+01	2.5299	-13.434157	-0.000257	-2.573307	-0.871860	-0.000117
1877	9.3800e+01	2.4994	-13.493222	0.000259	2.591177	0.877915	-0.000118
1878	9.3850e+01	2.4978	-13.543325	0.000220	2.198033	0.744714	-0.000100
1879	9.3900e+01	2.4432	-13.595872	0.000231	2.305254	0.781041	-0.000105
1880	9.3950e+01	2.4288	-13.652493	0.000248	2.483956	0.841587	-0.000113
1881	9.4000e+01	2.4272	-13.713594	0.000268	2.680528	0.908187	-0.000122
1882	9.4050e+01	2.3903	-13.768586	0.000241	2.412475	0.817369	-0.000110
1883	9.4100e+01	2.4160	-13.825206	-0.000248	-2.483956	-0.841587	-0.000113
1884	9.4150e+01	2.3823	-13.883456	0.000256	2.555437	0.865805	-0.000116
1885	9.4200e+01	2.3406	-13.938040	0.000239	2.394605	0.811314	-0.000109
1886	9.4250e+01	2.3422	-13.996290	-0.000256	-2.555437	-0.865805	-0.000116
1887	9.4300e+01	2.3101	-14.052096	0.000245	2.448216	0.829478	-0.000112
1888	9.4350e+01	2.2748	-14.107087	0.000241	2.412475	0.817369	-0.000110
1889	9.4400e+01	2.2860	-14.166967	-0.000263	-2.626917	-0.890024	-0.000120
1890	9.4450e+01	2.2411	-14.222365	0.000243	2.430345	0.823423	-0.000111
1891	9.4500e+01	2.2379	-14.280208	0.000254	2.537566	0.859751	-0.000116
1892	9.4550e+01	2.2058	-14.331940	0.000227	2.269514	0.768932	-0.000103
1893	9.4600e+01	2.1609	-14.388154	0.000247	2.466086	0.835532	-0.000112
1894	9.4650e+01	2.1834	-14.448440	-0.000264	-2.644788	-0.896078	-0.000121
1895	9.4700e+01	2.1465	-14.507912	0.000261	2.609047	0.883969	-0.000119
1896	9.4750e+01	2.1192	-14.562089	0.000238	2.376735	0.805260	-0.000108
1897	9.4800e+01	2.0871	-14.620339	0.000256	2.555437	0.865805	-0.000116
1898	9.4850e+01	2.0695	-14.678589	0.000256	2.555437	0.865805	-0.000116
1899	9.4900e+01	2.0598	-14.728692	0.000220	2.198033	0.744714	-0.000100
1900	9.4950e+01	2.0326	-14.784091	0.000243	2.430345	0.823423	-0.000111
1901	9.5000e+01	2.0181	-14.844377	0.000264	2.644788	0.896078	-0.000121
1902	9.5050e+01	1.9941	-14.902627	0.000256	2.555437	0.865805	-0.000116
1903	9.5100e+01	1.9764	-14.957618	0.000241	2.412475	0.817369	-0.000110
1904	9.5150e+01	1.9588	-15.019127	0.000270	2.698398	0.914242	-0.000123
1905	9.5200e+01	1.9251	-15.075340	0.000247	2.466086	0.835532	-0.000112
1906	9.5250e+01	1.9138	-15.130739	0.000243	2.430345	0.823423	-0.000111
1907	9.5300e+01	1.9010	-15.190211	0.000261	2.609047	0.883969	-0.000119
1908	9.5350e+01	1.8673	-15.246017	0.000245	2.448216	0.829478	-0.000112
1909	9.5400e+01	1.8577	-15.300601	0.000239	2.394605	0.811314	-0.000109
1910	9.5450e+01	1.8417	-15.355592	0.000241	2.412475	0.817369	-0.000110
1911	9.5500e+01	1.8320	-15.414249	0.000257	2.573307	0.871860	-0.000117
1912	9.5550e+01	1.7903	-15.476573	0.000273	2.734139	0.926351	-0.000125
1913	9.5600e+01	1.7839	-15.536452	0.000263	2.626917	0.890024	-0.000120
1914	9.5650e+01	1.7470	-15.590221	0.000236	2.358865	0.799205	-0.000108
1915	9.5700e+01	1.7358	-15.646842	0.000248	2.483956	0.841587	-0.000113
1916	9.5750e+01	1.7085	-15.708758	0.000272	2.716268	0.920297	-0.000124
1917	9.5800e+01	1.7021	-15.762120	0.000234	2.340994	0.793150	-0.000107
1918	9.5850e+01	1.6812	-15.822814	0.000266	2.662658	0.902133	-0.000121
1919	9.5900e+01	1.6459	-15.878620	0.000245	2.448216	0.829478	-0.000112
1920	9.5950e+01	1.6508	-15.938907	-0.000264	-2.644788	-0.896078	-0.000121
1921	9.6000e+01	1.6155	-15.995527	0.000248	2.483956	0.841587	-0.000113
1922	9.6050e+01	1.6283	-16.053777	-0.000256	-2.555437	-0.865805	-0.000116
1923	9.6100e+01	1.5914	-16.108769	0.000241	2.412475	0.817369	-0.000110
1924	9.6150e+01	1.5786	-16.169463	0.000266	2.662658	0.902133	-0.000121
1925	9.6200e+01	1.5561	-16.227305	0.000254	2.537566	0.859751	-0.000116
1926	9.6250e+01	1.5176	-16.290851	0.000279	2.787749	0.944515	-0.000127
1927	9.6300e+01	1.4951	-16.348286	0.000252	2.519696	0.853696	-0.000115
1928	9.6350e+01	1.4791	-16.402870	0.000239	2.394605	0.811314	-0.000109
1929	9.6400e+01	1.4550	-16.466415	0.000279	2.787749	0.944515	-0.000127
1930	9.6450e+01	1.4310	-16.520592	0.000238	2.376735	0.805260	-0.000108
1931	9.6500e+01	1.4214	-16.581693	0.000268	2.680528	0.908187	-0.000122
1932	9.6550e+01	1.4181	-16.639129	0.000252	2.519696	0.853696	-0.000115
1933	9.6600e+01	1.3812	-16.701859	0.000275	2.752009	0.932406	-0.000125
1934	9.6650e+01	1.3508	-16.760924	0.000259	2.591177	0.877915	-0.000118
1935	9.6700e+01	1.3764	-16.820396	-0.000261	-2.609047	-0.883969	-0.000119
1936	9.6750e+01	1.3299	-16.880683	0.000264	2.644788	0.896078	-0.000121
1937	9.6800e+01	1.3058	-16.939340	0.000257	2.573307	0.871860	-0.000117
1938	9.6850e+01	1.2802	-17.006959	0.000297	2.966451	1.005061	-0.000135
1939	9.6900e+01	1.2497	-17.067653	0.000266	2.662658	0.902133	-0.000121
1940	9.6950e+01	1.2353	-17.123866	0.000247	2.466086	0.835532	-0.000112
1941	9.7000e+01	1.2288	-17.183338	0.000261	2.609047	0.883969	-0.000119
1942	9.7050e+01	1.2080	-17.244847	0.000270	2.698398	0.914242	-0.000123
1943	9.7100e+01	1.1663	-17.303912	0.000259	2.591177	0.877915	-0.000118
1944	9.7150e+01	1.1406	-17.371123	0.000295	2.948581	0.999006	-0.000134
1945	9.7200e+01	1.1037	-17.431817	0.000266	2.662658	0.902133	-0.000121
1946	9.7250e+01	1.1326	-17.492104	-0.000264	-2.644788	-0.896078	-0.000121
1947	9.7300e+01	1.1117	-17.554020	0.000272	2.716268	0.920297	-0.000124
1948	9.7350e+01	1.0957	-17.616343	0.000273	2.734139	0.926351	-0.000125
1949	9.7400e+01	1.0476	-17.673371	0.000250	2.501826	0.847642	-0.000114
1950	9.7450e+01	1.0331	-17.732436	0.000259	2.591177	0.877915	-0.000118
1951	9.7500e+01	1.0460	-17.796389	-0.000281	-2.805619	-0.950570	-0.000128
1952	9.7550e+01	1.0139	-17.854639	0.000256	2.555437	0.865805	-0.000116
1953	9.7600e+01	0.9802	-17.914925	0.000264	2.644788	0.896078	-0.000121
1954	9.7650e+01	0.9625	-17.980100	0.000286	2.859230	0.968733	-0.000130
1955	9.7700e+01	0.9465	-18.041609	0.000270	2.698398	0.914242	-0.000123
1956	9.7750e+01	0.9353	-18.098230	0.000248	2.483956	0.841587	-0.000113
1957	9.7800e+01	0.8952	-18.153628	0.000243	2.430345	0.823423	-0.000111
1958	9.7850e+01	0.8743	-18.215137	0.000270	2.698398	0.914242	-0.000123
1959	9.7900e+01	0.8743	-18.275831	0.000266	2.662658	0.902133	-0.000121
1960	9.7950e+01	0.8326	-18.332452	0.000248	2.483956	0.841587	-0.000113
1961	9.8000e+01	0.8021	-18.399663	0.000295	2.948581	0.999006	-0.000134
1962	9.8050e+01	0.7861	-18.457913	0.000256	2.555437	0.865805	-0.000116
1963	9.8100e+01	0.7716	-18.521866	0.000281	2.805619	0.950570	-0.000128
1964	9.8150e+01	0.7700	-18.580523	0.000257	2.573307	0.871860	-0.000117
1965	9.8200e+01	0.7331	-18.644883	0.000282	2.823489	0.956624	-0.000129
1966	9.8250e+01	0.7219	-18.700689	0.000245	2.448216	0.829478	-0.000112
1967	9.8300e+01	0.6930	-18.753236	0.000231	2.305254	0.781041	-0.000105
1968	9.8350e+01	0.6898	-18.820855	0.000297	2.966451	1.005061	-0.000135
1969	9.8400e+01	0.6545	-18.877883	0.000250	2.501826	0.847642	-0.000114
1970	9.8450e+01	0.6385	-18.942651	0.000284	2.841360	0.962679	-0.000130
1971	9.8500e+01	0.6112	-19.007418	0.000284	2.841360	0.962679	-0.000130
1972	9.8550e+01	0.5855	-19.067297	0.000263	2.626917	0.890024	-0.000120
1973	9.8600e+01	0.5952	-19.129214	-0.000272	-2.716268	-0.920297	-0.000124
1974	9.8650e+01	0.5599	-19.187056	0.000254	2.537566	0.859751	-0.000116
1975	9.8700e+01	0.5470	-19.247750	0.000266	2.662658	0.902133	-0.000121
1976	9.8750e+01	0.5294	-19.311703	0.000281	2.805619	0.950570	-0.000128
1977	9.8800e+01	0.4893	-19.374026	0.000273	2.734139	0.926351	-0.000125
1978	9.8850e+01	0.4652	-19.437165	0.000277	2.769879	0.938460	-0.000126
1979	9.8900e+01	0.4957	-19.494192	-0.000250	-2.501826	-0.847642	-0.000114
1980	9.8950e+01	0.4412	-19.553257	0.000259	2.591177	0.877915	-0.000118
1981	9.9000e+01	0.4315	-19.616803	0.000279	2.787749	0.944515	-0.000127
1982	9.9050e+01	0.4027	-19.686051	0.000304	3.037932	1.029279	-0.000138
1983	9.9100e+01	0.3850	-19.740635	0.000239	2.394605	0.811314	-0.000109
1984	9.9150e+01	0.3658	-19.805810	0.000286	2.859230	0.968733	-0.000130
1985	9.9200e+01	0.3176	-19.864060	0.000256	2.555437	0.865805	-0.000116
1986	9.9250e+01	0.2968	-19.925976	0.000272	2.716268	0.920297	-0.000124
1987	9.9300e+01	0.2888	-19.985448	0.000261	2.609047	0.883969	-0.000119
1988	9.9350e+01	0.2631	-20.048993	0.000279	2.787749	0.944515	-0.000127
1989	9.9400e+01	0.2647	-20.112538	-0.000279	-2.787749	-0.944515	-0.000127
1990	9.9450e+01	0.2535	-20.173640	0.000268	2.680528	0.908187	-0.000122
1991	9.9500e+01	0.1861	-20.234741	0.000268	2.680528	0.908187	-0.000122
1992	9.9550e+01	0.1829	-20.298287	0.000279	2.787749	0.944515	-0.000127
1993	9.9600e+01	0.1733	-20.362647	0.000282	2.823489	0.956624	-0.000129
1994	9.9650e+01	0.1717	-20.424563	0.000272	2.716268	0.920297	-0.000124
1995	9.9700e+01	0.1588	-20.486886	0.000273	2.734139	0.926351	-0.000125
1996	9.9750e+01	0.1107	-20.553283	0.000291	2.912840	0.986897	-0.000133
1997	9.9800e+01	0.0834	-20.614792	0.000270	2.698398	0.914242	-0.000123
1998	9.9850e+01	0.0946	-20.674671	-0.000263	-2.626917	-0.890024	-0.000120
1999	9.9900e+01	0.0529	-20.734143	0.000261	2.609047	0.883969	-0.000119
2000	9.9950e+01	0.0433	-20.807872	0.000323	3.234504	1.095880	-0.000147
2001	1.0000e+02	0.0353	-20.845755	0.000323	3.234504	1.095880	-0.000076

PMax (uC/cm2):	4.64e+01
Pr (uC/cm2):	2.33e+00
-Pr (uC/cm2):	0.00e+00
PLoss (uC/cm2):	0.00e+00
C (Max-Eff) (nF):	2.31e-01
K (Eff):	7.84e+02
Vert. (+/-Pr) Shift (uC/cm2):	1.16e+00
Offset (uC/cm2):	2.32e+01

A (Loop Area - uC/cm2·Volts):	-5.11e-02



Hysteresis Version: 5.48.1 - Radiant Technologies, Inc., 1999 - 9/12/24

