»»»»»»»»»»»»»»»»»»»»»»»»»»»»»»»»»»»» Hysteresis ««««««««««««««««««««««««««««««««««««
»»»  Executed Version:	5.48.1
»»»  Vision Version:	5.48.4 (R)
»»»  Vision Compiled:	9/18/24
»»»  Driver Version:	5.47.0
»»»  Windows Version:	Windows 8 or 8.1
»»»  Processor Information:	x86 (AMD or Intel) - 32 Processors
»»»  Tester Name:	PMF21124-494 (100V)
»»»  Tester S/N:	PMF21124-494
»»»  Internal Amp Type:	100V RevK 270k
»»»  Internal Amp S/N:	iAB2-596/K     
»»»  Execution Count:	1
»»»»»»»»»»»»»»»»»»»»»»»»»»»»»»»»»»»»»»»»»»««««««««««««««««««««««««««««««««««««««««««

Stored:	10/10/2025 - 14:32:55
Configured:	10/10/25 10:37:25 AM
Executed:	10/10/25 02:32:34 PM

»»»»»»»»»»»»»»»»»»»»»»»»»»»»»»»»»»» Sample Info ««««««««««««««««««««««««««««««««««««
Sample Name:	Int. Ref. Ferroelectric
Lot Name:	N/A
Wafer Name:	N/A
Die Row/Column:	0/0
Capacitor Number:	0
Sample Area (cm2):	1.00e-04
Sample Thickness (microns):	3.00e-01

Amplifier:	Internal

»»»»»»»»»»»»»»»»»»»»»»»»»»»»»»»»»»» Tester Info «««««««««««««««««««««««««««««««««««
Tester Name:	PMF21124-494 (100V)
Tester Serial Number:	PMF21124-494
Return Signal Amp. Level:	0.02 [Index: 2]

»»»»»»»»»»»»»»»»»»»»»»»»»»»»»»»» Hysteresis Info ««««««««««««««««««««««««««««««««««
Task Name:	Hyst-170
Volts:	20.00
Field:	666.67 (kV/cm)
DCBias:	0.00
DCField:	0.00 (kV/cm)
Hysteresis Period (ms):	5.00e-01
Preset:	Enabled
Preset Delay (ms):	1.00e+03
Profile:	Standard Monopolar

»»»»»»»»»»»»»»»»»»»»»»»»»»»»»»»»»»»»»» Data «««««««««««««««««««««««««««««««««««««««
Points:	1001

Valid Data

Point	Time (ms)	Drive Voltage	Measured Polarization (uC/cm2)	Capacitance (uF)	Normalized Capacitance (uF/cm2)	Dielectric Constant	Instantaneous Current (mA)
   1	0.0000e+00	0.0401	-34.005611	0.001454	14.539559	4.926136	0.116507
   2	5.0000e-04	0.0545	-33.423074	0.001454	14.539559	4.926136	0.116507
   3	1.0000e-03	0.1412	-33.750751	-0.000818	-8.178502	-2.770951	-0.065535
   4	1.5000e-03	0.1556	-33.204622	0.001363	13.630837	4.618252	0.109226
   5	2.0000e-03	0.1861	-33.313848	-0.000273	-2.726167	-0.923650	-0.021845
   6	2.5000e-03	0.2150	-32.876945	0.001090	10.904669	3.694602	0.087381
   7	3.0000e-03	0.2743	-32.585676	0.000727	7.269780	2.463068	0.058254
   8	3.5000e-03	0.3048	-32.804128	-0.000545	-5.452335	-1.847301	-0.043690
   9	4.0000e-03	0.3706	-32.403633	0.001000	9.995947	3.386718	0.080099
  10	4.5000e-03	0.3738	-32.221591	0.000454	4.543612	1.539417	0.036409
  11	5.0000e-03	0.4155	-31.784688	0.001090	10.904669	3.694602	0.087381
  12	5.5000e-03	0.4652	-31.930322	-0.000363	-3.634890	-1.231534	-0.029127
  13	6.0000e-03	0.5198	-31.639053	0.000727	7.269780	2.463068	0.058254
  14	6.5000e-03	0.5454	-31.566236	0.000182	1.817445	0.615767	0.014563
  15	7.0000e-03	0.5807	-31.529828	0.000091	0.908722	0.307883	0.007282
  16	7.5000e-03	0.6369	-31.311376	0.000545	5.452335	1.847301	0.043690
  17	8.0000e-03	0.6818	-30.838065	0.001181	11.813392	4.002485	0.094662
  18	8.5000e-03	0.7027	-30.546796	0.000727	7.269780	2.463068	0.058254
  19	9.0000e-03	0.7556	-31.129333	-0.001454	-14.539559	-4.926136	-0.116507
  20	9.5000e-03	0.7845	-30.473979	0.001636	16.357004	5.541903	0.131071
  21	1.0000e-02	0.8182	-30.146302	0.000818	8.178502	2.770951	0.065535
  22	1.0500e-02	0.8535	-30.146302	0.000000	0.000000	0.000000	0.000000
  23	1.1000e-02	0.9289	-29.927850	0.000545	5.452335	1.847301	0.043690
  24	1.1500e-02	0.9818	-29.927850	0.000000	0.000000	0.000000	0.000000
  25	1.2000e-02	0.9946	-29.782216	0.000363	3.634890	1.231534	0.029127
  26	1.2500e-02	1.0347	-29.745807	0.000091	0.908722	0.307883	0.007282
  27	1.3000e-02	1.0861	-29.236087	0.001272	12.722114	4.310369	0.101944
  28	1.3500e-02	1.1214	-29.272496	-0.000091	-0.908722	-0.307883	-0.007282
  29	1.4000e-02	1.1615	-28.872002	0.001000	9.995947	3.386718	0.080099
  30	1.4500e-02	1.2064	-28.653550	0.000545	5.452335	1.847301	0.043690
  31	1.5000e-02	1.2240	-28.580733	0.000182	1.817445	0.615767	0.014563
  32	1.5500e-02	1.2770	-28.617141	-0.000091	-0.908722	-0.307883	-0.007282
  33	1.6000e-02	1.3331	-28.107421	0.001272	12.722114	4.310369	0.101944
  34	1.6500e-02	1.3604	-28.216647	-0.000273	-2.726167	-0.923650	-0.021845
  35	1.7000e-02	1.4037	-27.816153	0.001000	9.995947	3.386718	0.080099
  36	1.7500e-02	1.4422	-27.888970	-0.000182	-1.817445	-0.615767	-0.014563
  37	1.8000e-02	1.4823	-27.852561	0.000091	0.908722	0.307883	0.007282
  38	1.8500e-02	1.4935	-27.197207	0.001636	16.357004	5.541903	0.131071
  39	1.9000e-02	1.5481	-26.942347	0.000636	6.361057	2.155184	0.050972
  40	1.9500e-02	1.5770	-26.942347	0.000000	0.000000	0.000000	0.000000
  41	2.0000e-02	1.6524	-26.796713	0.000363	3.634890	1.231534	0.029127
  42	2.0500e-02	1.6796	-26.505444	0.000727	7.269780	2.463068	0.058254
  43	2.1000e-02	1.7053	-26.833121	-0.000818	-8.178502	-2.770951	-0.065535
  44	2.1500e-02	1.7502	-26.214175	0.001545	15.448282	5.234019	0.123789
  45	2.2000e-02	1.8080	-26.141358	0.000182	1.817445	0.615767	0.014563
  46	2.2500e-02	1.8609	-25.886498	0.000636	6.361057	2.155184	0.050972
  47	2.3000e-02	1.8770	-25.850090	0.000091	0.908722	0.307883	0.007282
  48	2.3500e-02	1.9267	-25.486004	0.000909	9.087224	3.078835	0.072817
  49	2.4000e-02	1.9524	-25.631638	-0.000363	-3.634890	-1.231534	-0.029127
  50	2.4500e-02	1.9941	-25.267552	0.000909	9.087224	3.078835	0.072817
  51	2.5000e-02	2.0294	-25.085510	0.000454	4.543612	1.539417	0.036409
  52	2.5500e-02	2.0743	-25.085510	0.000000	0.000000	0.000000	0.000000
  53	2.6000e-02	2.0791	-24.721424	0.000909	9.087224	3.078835	0.072817
  54	2.6500e-02	2.1561	-24.320929	0.001000	9.995947	3.386718	0.080099
  55	2.7000e-02	2.1866	-24.721424	-0.001000	-9.995947	-3.386718	-0.080099
  56	2.7500e-02	2.2588	-24.284521	0.001090	10.904669	3.694602	0.087381
  57	2.8000e-02	2.2780	-23.665575	0.001545	15.448282	5.234019	0.123789
  58	2.8500e-02	2.2957	-23.993252	-0.000818	-8.178502	-2.770951	-0.065535
  59	2.9000e-02	2.3695	-23.811209	0.000454	4.543612	1.539417	0.036409
  60	2.9500e-02	2.3951	-23.556349	0.000636	6.361057	2.155184	0.050972
  61	3.0000e-02	2.4192	-23.519941	0.000091	0.908722	0.307883	0.007282
  62	3.0500e-02	2.4545	-23.119446	0.001000	9.995947	3.386718	0.080099
  63	3.1000e-02	2.5138	-23.265081	-0.000363	-3.634890	-1.231534	-0.029127
  64	3.1500e-02	2.5764	-23.228672	0.000091	0.908722	0.307883	0.007282
  65	3.2000e-02	2.6101	-22.828178	0.001000	9.995947	3.386718	0.080099
  66	3.2500e-02	2.6374	-22.828178	0.000000	0.000000	0.000000	0.000000
  67	3.3000e-02	2.6887	-22.464092	0.000909	9.087224	3.078835	0.072817
  68	3.3500e-02	2.7224	-22.318458	0.000363	3.634890	1.231534	0.029127
  69	3.4000e-02	2.7464	-22.282049	0.000091	0.908722	0.307883	0.007282
  70	3.4500e-02	2.7641	-21.735920	0.001363	13.630837	4.618252	0.109226
  71	3.5000e-02	2.8218	-21.699512	0.000091	0.908722	0.307883	0.007282
  72	3.5500e-02	2.8652	-21.663103	0.000091	0.908722	0.307883	0.007282
  73	3.6000e-02	2.8892	-21.080566	0.001454	14.539559	4.926136	0.116507
  74	3.6500e-02	2.9245	-21.153383	-0.000182	-1.817445	-0.615767	-0.014563
  75	3.7000e-02	2.9935	-21.226200	-0.000182	-1.817445	-0.615767	-0.014563
  76	3.7500e-02	3.0240	-20.971340	0.000636	6.361057	2.155184	0.050972
  77	3.8000e-02	3.0400	-20.716480	0.000636	6.361057	2.155184	0.050972
  78	3.8500e-02	3.1058	-20.534437	0.000454	4.543612	1.539417	0.036409
  79	3.9000e-02	3.1491	-20.352395	0.000454	4.543612	1.539417	0.036409
  80	3.9500e-02	3.2261	-20.315986	0.000091	0.908722	0.307883	0.007282
  81	4.0000e-02	3.2325	-20.206760	0.000273	2.726167	0.923650	0.021845
  82	4.0500e-02	3.2871	-19.951900	0.000636	6.361057	2.155184	0.050972
  83	4.1000e-02	3.3208	-19.660632	0.000727	7.269780	2.463068	0.058254
  84	4.1500e-02	3.3496	-19.551406	0.000273	2.726167	0.923650	0.021845
  85	4.2000e-02	3.4010	-19.842674	-0.000727	-7.269780	-2.463068	-0.058254
  86	4.2500e-02	3.4587	-19.260137	0.001454	14.539559	4.926136	0.116507
  87	4.3000e-02	3.4972	-19.296546	-0.000091	-0.908722	-0.307883	-0.007282
  88	4.3500e-02	3.5325	-18.968869	0.000818	8.178502	2.770951	0.065535
  89	4.4000e-02	3.5951	-18.786826	0.000454	4.543612	1.539417	0.036409
  90	4.4500e-02	3.6159	-19.078094	-0.000727	-7.269780	-2.463068	-0.058254
  91	4.5000e-02	3.6272	-18.386331	0.001727	17.265726	5.849786	0.138353
  92	4.5500e-02	3.6817	-18.568374	-0.000454	-4.543612	-1.539417	-0.036409
  93	4.6000e-02	3.7347	-17.985837	0.001454	14.539559	4.926136	0.116507
  94	4.6500e-02	3.7667	-17.730977	0.000636	6.361057	2.155184	0.050972
  95	4.7000e-02	3.7812	-18.095063	-0.000909	-9.087224	-3.078835	-0.072817
  96	4.7500e-02	3.8309	-17.767386	0.000818	8.178502	2.770951	0.065535
  97	4.8000e-02	3.8678	-17.294074	0.001181	11.813392	4.002485	0.094662
  98	4.8500e-02	3.9175	-17.548934	-0.000636	-6.361057	-2.155184	-0.050972
  99	4.9000e-02	3.9609	-17.184848	0.000909	9.087224	3.078835	0.072817
 100	4.9500e-02	3.9961	-17.366891	-0.000454	-4.543612	-1.539417	-0.036409
 101	5.0000e-02	4.0266	-17.039214	0.000818	8.178502	2.770951	0.065535
 102	5.0500e-02	4.0667	-16.893580	0.000363	3.634890	1.231534	0.029127
 103	5.1000e-02	4.1213	-16.711537	0.000454	4.543612	1.539417	0.036409
 104	5.1500e-02	4.1261	-16.274634	0.001090	10.904669	3.694602	0.087381
 105	5.2000e-02	4.1790	-16.274634	0.000000	0.000000	0.000000	0.000000
 106	5.2500e-02	4.2464	-16.274634	0.000000	0.000000	0.000000	0.000000
 107	5.3000e-02	4.2657	-15.837731	0.001090	10.904669	3.694602	0.087381
 108	5.3500e-02	4.3282	-15.692097	0.000363	3.634890	1.231534	0.029127
 109	5.4000e-02	4.3411	-15.728505	-0.000091	-0.908722	-0.307883	-0.007282
 110	5.4500e-02	4.3763	-15.655688	0.000182	1.817445	0.615767	0.014563
 111	5.5000e-02	4.4052	-15.218785	0.001090	10.904669	3.694602	0.087381
 112	5.5500e-02	4.4919	-15.328011	-0.000273	-2.726167	-0.923650	-0.021845
 113	5.6000e-02	4.5127	-14.818291	0.001272	12.722114	4.310369	0.101944
 114	5.6500e-02	4.5368	-14.963925	-0.000363	-3.634890	-1.231534	-0.029127
 115	5.7000e-02	4.5945	-14.599839	0.000909	9.087224	3.078835	0.072817
 116	5.7500e-02	4.6362	-14.781882	-0.000454	-4.543612	-1.539417	-0.036409
 117	5.8000e-02	4.6731	-14.454205	0.000818	8.178502	2.770951	0.065535
 118	5.8500e-02	4.7148	-14.090119	0.000909	9.087224	3.078835	0.072817
 119	5.9000e-02	4.7678	-14.381388	-0.000727	-7.269780	-2.463068	-0.058254
 120	5.9500e-02	4.7999	-13.835259	0.001363	13.630837	4.618252	0.109226
 121	6.0000e-02	4.8175	-14.053711	-0.000545	-5.452335	-1.847301	-0.043690
 122	6.0500e-02	4.8849	-13.835259	0.000545	5.452335	1.847301	0.043690
 123	6.1000e-02	4.9073	-13.507582	0.000818	8.178502	2.770951	0.065535
 124	6.1500e-02	4.9491	-13.252722	0.000636	6.361057	2.155184	0.050972
 125	6.2000e-02	4.9827	-13.107088	0.000363	3.634890	1.231534	0.029127
 126	6.2500e-02	5.0373	-13.289131	-0.000454	-4.543612	-1.539417	-0.036409
 127	6.3000e-02	5.0726	-12.888636	0.001000	9.995947	3.386718	0.080099
 128	6.3500e-02	5.1207	-12.925045	-0.000091	-0.908722	-0.307883	-0.007282
 129	6.4000e-02	5.1528	-12.451733	0.001181	11.813392	4.002485	0.094662
 130	6.4500e-02	5.1977	-12.160465	0.000727	7.269780	2.463068	0.058254
 131	6.5000e-02	5.2202	-12.124056	0.000091	0.908722	0.307883	0.007282
 132	6.5500e-02	5.2940	-12.306099	-0.000454	-4.543612	-1.539417	-0.036409
 133	6.6000e-02	5.3100	-12.124056	0.000454	4.543612	1.539417	0.036409
 134	6.6500e-02	5.3533	-11.832788	0.000727	7.269780	2.463068	0.058254
 135	6.7000e-02	5.3966	-11.687153	0.000363	3.634890	1.231534	0.029127
 136	6.7500e-02	5.4351	-11.614336	0.000182	1.817445	0.615767	0.014563
 137	6.8000e-02	5.4736	-11.468702	0.000363	3.634890	1.231534	0.029127
 138	6.8500e-02	5.5170	-11.068207	0.001000	9.995947	3.386718	0.080099
 139	6.9000e-02	5.5699	-11.177433	-0.000273	-2.726167	-0.923650	-0.021845
 140	6.9500e-02	5.5972	-11.141025	0.000091	0.908722	0.307883	0.007282
 141	7.0000e-02	5.6373	-10.704122	0.001090	10.904669	3.694602	0.087381
 142	7.0500e-02	5.6838	-10.813347	-0.000273	-2.726167	-0.923650	-0.021845
 143	7.1000e-02	5.6966	-10.048767	0.001908	19.083171	6.465553	0.152916
 144	7.1500e-02	5.7608	-10.594896	-0.001363	-13.630837	-4.618252	-0.109226
 145	7.2000e-02	5.7881	-10.012359	0.001454	14.539559	4.926136	0.116507
 146	7.2500e-02	5.8073	-9.611864	0.001000	9.995947	3.386718	0.080099
 147	7.3000e-02	5.8699	-9.757499	-0.000363	-3.634890	-1.231534	-0.029127
 148	7.3500e-02	5.9036	-9.357004	0.001000	9.995947	3.386718	0.080099
 149	7.4000e-02	5.9597	-9.575456	-0.000545	-5.452335	-1.847301	-0.043690
 150	7.4500e-02	6.0062	-9.466230	0.000273	2.726167	0.923650	0.021845
 151	7.5000e-02	6.0191	-8.774467	0.001727	17.265726	5.849786	0.138353
 152	7.5500e-02	6.0929	-9.211370	-0.001090	-10.904669	-3.694602	-0.087381
 153	7.6000e-02	6.0977	-8.992919	0.000545	5.452335	1.847301	0.043690
 154	7.6500e-02	6.1426	-8.519607	0.001181	11.813392	4.002485	0.094662
 155	7.7000e-02	6.1939	-8.483198	0.000091	0.908722	0.307883	0.007282
 156	7.7500e-02	6.2244	-8.556016	-0.000182	-1.817445	-0.615767	-0.014563
 157	7.8000e-02	6.2677	-8.009887	0.001363	13.630837	4.618252	0.109226
 158	7.8500e-02	6.3544	-8.228338	-0.000545	-5.452335	-1.847301	-0.043690
 159	7.9000e-02	6.3576	-7.973478	0.000636	6.361057	2.155184	0.050972
 160	7.9500e-02	6.4025	-7.718618	0.000636	6.361057	2.155184	0.050972
 161	8.0000e-02	6.4137	-7.500167	0.000545	5.452335	1.847301	0.043690
 162	8.0500e-02	6.4811	-7.645801	-0.000363	-3.634890	-1.231534	-0.029127
 163	8.1000e-02	6.4971	-7.463758	0.000454	4.543612	1.539417	0.036409
 164	8.1500e-02	6.5645	-7.245307	0.000545	5.452335	1.847301	0.043690
 165	8.2000e-02	6.5661	-7.136081	0.000273	2.726167	0.923650	0.021845
 166	8.2500e-02	6.6255	-6.589952	0.001363	13.630837	4.618252	0.109226
 167	8.3000e-02	6.7153	-6.771995	-0.000454	-4.543612	-1.539417	-0.036409
 168	8.3500e-02	6.7217	-6.517135	0.000636	6.361057	2.155184	0.050972
 169	8.4000e-02	6.7298	-6.335092	0.000454	4.543612	1.539417	0.036409
 170	8.4500e-02	6.7875	-6.225867	0.000273	2.726167	0.923650	0.021845
 171	8.5000e-02	6.8388	-5.971007	0.000636	6.361057	2.155184	0.050972
 172	8.5500e-02	6.8693	-6.116641	-0.000363	-3.634890	-1.231534	-0.029127
 173	8.6000e-02	6.9303	-5.861781	0.000636	6.361057	2.155184	0.050972
 174	8.6500e-02	6.9479	-5.971007	-0.000273	-2.726167	-0.923650	-0.021845
 175	8.7000e-02	6.9977	-5.971007	0.000000	0.000000	0.000000	0.000000
 176	8.7500e-02	7.0602	-5.388469	0.001454	14.539559	4.926136	0.116507
 177	8.8000e-02	7.0747	-5.315652	0.000182	1.817445	0.615767	0.014563
 178	8.8500e-02	7.1212	-5.024384	0.000727	7.269780	2.463068	0.058254
 179	8.9000e-02	7.1404	-5.024384	0.000000	0.000000	0.000000	0.000000
 180	8.9500e-02	7.1998	-4.769524	0.000636	6.361057	2.155184	0.050972
 181	9.0000e-02	7.2303	-4.842341	-0.000182	-1.817445	-0.615767	-0.014563
 182	9.0500e-02	7.2592	-4.915158	-0.000182	-1.817445	-0.615767	-0.014563
 183	9.1000e-02	7.3009	-4.077761	0.002090	20.900616	7.081320	0.167479
 184	9.1500e-02	7.3554	-4.514664	-0.001090	-10.904669	-3.694602	-0.087381
 185	9.2000e-02	7.3971	-3.786492	0.001817	18.174449	6.157670	0.145634
 186	9.2500e-02	7.4436	-4.041352	-0.000636	-6.361057	-2.155184	-0.050972
 187	9.3000e-02	7.4902	-4.077761	-0.000091	-0.908722	-0.307883	-0.007282
 188	9.3500e-02	7.5415	-3.786492	0.000727	7.269780	2.463068	0.058254
 189	9.4000e-02	7.5591	-3.458815	0.000818	8.178502	2.770951	0.065535
 190	9.4500e-02	7.6169	-3.604449	-0.000363	-3.634890	-1.231534	-0.029127
 191	9.5000e-02	7.6361	-3.240363	0.000909	9.087224	3.078835	0.072817
 192	9.5500e-02	7.6955	-3.131138	0.000273	2.726167	0.923650	0.021845
 193	9.6000e-02	7.7228	-3.131138	0.000000	0.000000	0.000000	0.000000
 194	9.6500e-02	7.7597	-2.949095	0.000454	4.543612	1.539417	0.036409
 195	9.7000e-02	7.7789	-2.876278	0.000182	1.817445	0.615767	0.014563
 196	9.7500e-02	7.8367	-2.293740	0.001454	14.539559	4.926136	0.116507
 197	9.8000e-02	7.9025	-2.330149	-0.000091	-0.908722	-0.307883	-0.007282
 198	9.8500e-02	7.9249	-2.184515	0.000363	3.634890	1.231534	0.029127
 199	9.9000e-02	7.9538	-2.220923	-0.000091	-0.908722	-0.307883	-0.007282
 200	9.9500e-02	8.0164	-1.711203	0.001272	12.722114	4.310369	0.101944
 201	1.0000e-01	8.0324	-2.075289	-0.000909	-9.087224	-3.078835	-0.072817
 202	1.0050e-01	8.0661	-1.784020	0.000727	7.269780	2.463068	0.058254
 203	1.0100e-01	8.1383	-1.565569	0.000545	5.452335	1.847301	0.043690
 204	1.0150e-01	8.1639	-1.747612	-0.000454	-4.543612	-1.539417	-0.036409
 205	1.0200e-01	8.2137	-1.529160	0.000545	5.452335	1.847301	0.043690
 206	1.0250e-01	8.2522	-0.618946	0.002272	22.718061	7.697087	0.182043
 207	1.0300e-01	8.2907	-1.092257	-0.001181	-11.813392	-4.002485	-0.094662
 208	1.0350e-01	8.3179	-1.055849	0.000091	0.908722	0.307883	0.007282
 209	1.0400e-01	8.3645	-0.655354	0.001000	9.995947	3.386718	0.080099
 210	1.0450e-01	8.4190	-0.873806	-0.000545	-5.452335	-1.847301	-0.043690
 211	1.0500e-01	8.4238	-0.509720	0.000909	9.087224	3.078835	0.072817
 212	1.0550e-01	8.4703	-0.436903	0.000182	1.817445	0.615767	0.014563
 213	1.0600e-01	8.4912	-0.291269	0.000363	3.634890	1.231534	0.029127
 214	1.0650e-01	8.5361	-0.254860	0.000091	0.908722	0.307883	0.007282
 215	1.0700e-01	8.5794	0.145634	0.001000	9.995947	3.386718	0.080099
 216	1.0750e-01	8.6292	0.327677	0.000454	4.543612	1.539417	0.036409
 217	1.0800e-01	8.6580	0.618946	0.000727	7.269780	2.463068	0.058254
 218	1.0850e-01	8.6965	0.473312	-0.000363	-3.634890	-1.231534	-0.029127
 219	1.0900e-01	8.7431	0.800989	0.000818	8.178502	2.770951	0.065535
 220	1.0950e-01	8.8104	0.837397	0.000091	0.908722	0.307883	0.007282
 221	1.1000e-01	8.8153	1.019440	0.000454	4.543612	1.539417	0.036409
 222	1.1050e-01	8.8618	0.873806	-0.000363	-3.634890	-1.231534	-0.029127
 223	1.1100e-01	8.9067	1.419935	0.001363	13.630837	4.618252	0.109226
 224	1.1150e-01	8.9548	1.638386	0.000545	5.452335	1.847301	0.043690
 225	1.1200e-01	8.9997	1.419935	-0.000545	-5.452335	-1.847301	-0.043690
 226	1.1250e-01	9.0607	1.711203	0.000727	7.269780	2.463068	0.058254
 227	1.1300e-01	9.0703	1.711203	0.000000	0.000000	0.000000	0.000000
 228	1.1350e-01	9.1024	2.111697	0.001000	9.995947	3.386718	0.080099
 229	1.1400e-01	9.1698	2.111697	0.000000	0.000000	0.000000	0.000000
 230	1.1450e-01	9.1842	2.148106	0.000091	0.908722	0.307883	0.007282
 231	1.1500e-01	9.2484	2.330149	0.000454	4.543612	1.539417	0.036409
 232	1.1550e-01	9.2741	2.293740	-0.000091	-0.908722	-0.307883	-0.007282
 233	1.1600e-01	9.3126	2.694235	0.001000	9.995947	3.386718	0.080099
 234	1.1650e-01	9.3591	2.912686	0.000545	5.452335	1.847301	0.043690
 235	1.1700e-01	9.4088	2.548600	-0.000909	-9.087224	-3.078835	-0.072817
 236	1.1750e-01	9.4265	3.131138	0.001454	14.539559	4.926136	0.116507
 237	1.1800e-01	9.4874	3.131138	0.000000	0.000000	0.000000	0.000000
 238	1.1850e-01	9.5275	3.131138	0.000000	0.000000	0.000000	0.000000
 239	1.1900e-01	9.5436	3.422406	0.000727	7.269780	2.463068	0.058254
 240	1.1950e-01	9.5741	3.713675	0.000727	7.269780	2.463068	0.058254
 241	1.2000e-01	9.6190	4.077761	0.000909	9.087224	3.078835	0.072817
 242	1.2050e-01	9.6575	3.822901	-0.000636	-6.361057	-2.155184	-0.050972
 243	1.2100e-01	9.6960	4.041352	0.000545	5.452335	1.847301	0.043690
 244	1.2150e-01	9.7521	3.932126	-0.000273	-2.726167	-0.923650	-0.021845
 245	1.2200e-01	9.8035	4.077761	0.000363	3.634890	1.231534	0.029127
 246	1.2250e-01	9.8179	4.514664	0.001090	10.904669	3.694602	0.087381
 247	1.2300e-01	9.8660	4.623889	0.000273	2.726167	0.923650	0.021845
 248	1.2350e-01	9.9270	4.587481	-0.000091	-0.908722	-0.307883	-0.007282
 249	1.2400e-01	9.9751	4.551072	-0.000091	-0.908722	-0.307883	-0.007282
 250	1.2450e-01	10.0008	4.951566	0.001000	9.995947	3.386718	0.080099
 251	1.2500e-01	10.0345	5.060792	0.000273	2.726167	0.923650	0.021845
 252	1.2550e-01	10.0778	5.206427	0.000363	3.634890	1.231534	0.029127
 253	1.2600e-01	10.1067	5.133609	-0.000182	-1.817445	-0.615767	-0.014563
 254	1.2650e-01	10.1676	5.352061	0.000545	5.452335	1.847301	0.043690
 255	1.2700e-01	10.2158	5.461287	0.000273	2.726167	0.923650	0.021845
 256	1.2750e-01	10.2623	5.606921	0.000363	3.634890	1.231534	0.029127
 257	1.2800e-01	10.2863	5.643329	0.000091	0.908722	0.307883	0.007282
 258	1.2850e-01	10.3152	6.116641	0.001181	11.813392	4.002485	0.094662
 259	1.2900e-01	10.3377	6.225867	0.000273	2.726167	0.923650	0.021845
 260	1.2950e-01	10.4131	6.262275	0.000091	0.908722	0.307883	0.007282
 261	1.3000e-01	10.4275	6.189458	-0.000182	-1.817445	-0.615767	-0.014563
 262	1.3050e-01	10.4917	6.808404	0.001545	15.448282	5.234019	0.123789
 263	1.3100e-01	10.5366	6.553544	-0.000636	-6.361057	-2.155184	-0.050972
 264	1.3150e-01	10.5494	6.771995	0.000545	5.452335	1.847301	0.043690
 265	1.3200e-01	10.5944	6.990447	0.000545	5.452335	1.847301	0.043690
 266	1.3250e-01	10.6457	6.589952	-0.001000	-9.995947	-3.386718	-0.080099
 267	1.3300e-01	10.6681	7.354533	0.001908	19.083171	6.465553	0.152916
 268	1.3350e-01	10.7163	7.390941	0.000091	0.908722	0.307883	0.007282
 269	1.3400e-01	10.7484	7.718618	0.000818	8.178502	2.770951	0.065535
 270	1.3450e-01	10.8125	7.536575	-0.000454	-4.543612	-1.539417	-0.036409
 271	1.3500e-01	10.8478	7.937070	0.001000	9.995947	3.386718	0.080099
 272	1.3550e-01	10.8911	7.937070	0.000000	0.000000	0.000000	0.000000
 273	1.3600e-01	10.9152	7.827844	-0.000273	-2.726167	-0.923650	-0.021845
 274	1.3650e-01	10.9312	8.155521	0.000818	8.178502	2.770951	0.065535
 275	1.3700e-01	11.0018	8.191930	0.000091	0.908722	0.307883	0.007282
 276	1.3750e-01	11.0323	8.155521	-0.000091	-0.908722	-0.307883	-0.007282
 277	1.3800e-01	11.0451	8.483198	0.000818	8.178502	2.770951	0.065535
 278	1.3850e-01	11.1061	8.665241	0.000454	4.543612	1.539417	0.036409
 279	1.3900e-01	11.1655	8.556016	-0.000273	-2.726167	-0.923650	-0.021845
 280	1.3950e-01	11.2008	8.483198	-0.000182	-1.817445	-0.615767	-0.014563
 281	1.4000e-01	11.2264	9.284187	0.001999	19.991894	6.773437	0.160198
 282	1.4050e-01	11.2649	8.920101	-0.000909	-9.087224	-3.078835	-0.072817
 283	1.4100e-01	11.3403	9.211370	0.000727	7.269780	2.463068	0.058254
 284	1.4150e-01	11.3596	9.320596	0.000273	2.726167	0.923650	0.021845
 285	1.4200e-01	11.3788	9.648273	0.000818	8.178502	2.770951	0.065535
 286	1.4250e-01	11.4414	9.611864	-0.000091	-0.908722	-0.307883	-0.007282
 287	1.4300e-01	11.4703	9.939542	0.000818	8.178502	2.770951	0.065535
 288	1.4350e-01	11.5184	9.757499	-0.000454	-4.543612	-1.539417	-0.036409
 289	1.4400e-01	11.5633	9.866724	0.000273	2.726167	0.923650	0.021845
 290	1.4450e-01	11.5938	10.012359	0.000363	3.634890	1.231534	0.029127
 291	1.4500e-01	11.6339	10.157993	0.000363	3.634890	1.231534	0.029127
 292	1.4550e-01	11.6916	10.194402	0.000091	0.908722	0.307883	0.007282
 293	1.4600e-01	11.6981	10.631304	0.001090	10.904669	3.694602	0.087381
 294	1.4650e-01	11.7494	10.776939	0.000363	3.634890	1.231534	0.029127
 295	1.4700e-01	11.8136	10.667713	-0.000273	-2.726167	-0.923650	-0.021845
 296	1.4750e-01	11.8569	10.776939	0.000273	2.726167	0.923650	0.021845
 297	1.4800e-01	11.8665	10.776939	0.000000	0.000000	0.000000	0.000000
 298	1.4850e-01	11.9194	11.286659	0.001272	12.722114	4.310369	0.101944
 299	1.4900e-01	11.9435	11.468702	0.000454	4.543612	1.539417	0.036409
 300	1.4950e-01	11.9868	11.323067	-0.000363	-3.634890	-1.231534	-0.029127
 301	1.5000e-01	12.0366	11.687153	0.000909	9.087224	3.078835	0.072817
 302	1.5050e-01	12.0783	11.614336	-0.000182	-1.817445	-0.615767	-0.014563
 303	1.5100e-01	12.1023	11.832788	0.000545	5.452335	1.847301	0.043690
 304	1.5150e-01	12.1473	11.869196	0.000091	0.908722	0.307883	0.007282
 305	1.5200e-01	12.1809	12.124056	0.000636	6.361057	2.155184	0.050972
 306	1.5250e-01	12.2435	12.051239	-0.000182	-1.817445	-0.615767	-0.014563
 307	1.5300e-01	12.2724	12.633776	0.001454	14.539559	4.926136	0.116507
 308	1.5350e-01	12.3237	11.905605	-0.001817	-18.174449	-6.157670	-0.145634
 309	1.5400e-01	12.3478	12.560959	0.001636	16.357004	5.541903	0.131071
 310	1.5450e-01	12.4055	12.451733	-0.000273	-2.726167	-0.923650	-0.021845
 311	1.5500e-01	12.4248	12.451733	0.000000	0.000000	0.000000	0.000000
 312	1.5550e-01	12.4569	13.179905	0.001817	18.174449	6.157670	0.145634
 313	1.5600e-01	12.5194	12.815819	-0.000909	-9.087224	-3.078835	-0.072817
 314	1.5650e-01	12.5595	13.034271	0.000545	5.452335	1.847301	0.043690
 315	1.5700e-01	12.5996	13.179905	0.000363	3.634890	1.231534	0.029127
 316	1.5750e-01	12.6269	13.471173	0.000727	7.269780	2.463068	0.058254
 317	1.5800e-01	12.6638	13.289131	-0.000454	-4.543612	-1.539417	-0.036409
 318	1.5850e-01	12.7135	13.434765	0.000363	3.634890	1.231534	0.029127
 319	1.5900e-01	12.7633	13.653216	0.000545	5.452335	1.847301	0.043690
 320	1.5950e-01	12.7954	13.798851	0.000363	3.634890	1.231534	0.029127
 321	1.6000e-01	12.8339	14.272162	0.001181	11.813392	4.002485	0.094662
 322	1.6050e-01	12.8627	14.199345	-0.000182	-1.817445	-0.615767	-0.014563
 323	1.6100e-01	12.9093	14.199345	0.000000	0.000000	0.000000	0.000000
 324	1.6150e-01	12.9478	14.053711	-0.000363	-3.634890	-1.231534	-0.029127
 325	1.6200e-01	12.9798	14.781882	0.001817	18.174449	6.157670	0.145634
 326	1.6250e-01	13.0520	14.490614	-0.000727	-7.269780	-2.463068	-0.058254
 327	1.6300e-01	13.1002	14.672657	0.000454	4.543612	1.539417	0.036409
 328	1.6350e-01	13.1082	14.818291	0.000363	3.634890	1.231534	0.029127
 329	1.6400e-01	13.1724	15.036742	0.000545	5.452335	1.847301	0.043690
 330	1.6450e-01	13.2060	15.255194	0.000545	5.452335	1.847301	0.043690
 331	1.6500e-01	13.2333	15.328011	0.000182	1.817445	0.615767	0.014563
 332	1.6550e-01	13.2686	15.218785	-0.000273	-2.726167	-0.923650	-0.021845
 333	1.6600e-01	13.3215	15.582871	0.000909	9.087224	3.078835	0.072817
 334	1.6650e-01	13.3584	15.728505	0.000363	3.634890	1.231534	0.029127
 335	1.6700e-01	13.4002	15.692097	-0.000091	-0.908722	-0.307883	-0.007282
 336	1.6750e-01	13.4258	16.129000	0.001090	10.904669	3.694602	0.087381
 337	1.6800e-01	13.4772	15.910548	-0.000545	-5.452335	-1.847301	-0.043690
 338	1.6850e-01	13.5237	15.801322	-0.000273	-2.726167	-0.923650	-0.021845
 339	1.6900e-01	13.5461	15.946957	0.000363	3.634890	1.231534	0.029127
 340	1.6950e-01	13.6055	16.456677	0.001272	12.722114	4.310369	0.101944
 341	1.7000e-01	13.6568	16.820763	0.000909	9.087224	3.078835	0.072817
 342	1.7050e-01	13.6633	16.747945	-0.000182	-1.817445	-0.615767	-0.014563
 343	1.7100e-01	13.6857	16.456677	-0.000727	-7.269780	-2.463068	-0.058254
 344	1.7150e-01	13.7659	16.893580	0.001090	10.904669	3.694602	0.087381
 345	1.7200e-01	13.7948	16.929988	0.000091	0.908722	0.307883	0.007282
 346	1.7250e-01	13.8333	17.221257	0.000727	7.269780	2.463068	0.058254
 347	1.7300e-01	13.8718	17.112031	-0.000273	-2.726167	-0.923650	-0.021845
 348	1.7350e-01	13.9103	17.148440	0.000091	0.908722	0.307883	0.007282
 349	1.7400e-01	13.9584	16.966397	-0.000454	-4.543612	-1.539417	-0.036409
 350	1.7450e-01	13.9985	17.439708	0.001181	11.813392	4.002485	0.094662
 351	1.7500e-01	14.0499	18.058654	0.001545	15.448282	5.234019	0.123789
 352	1.7550e-01	14.0659	17.476117	-0.001454	-14.539559	-4.926136	-0.116507
 353	1.7600e-01	14.0964	17.876611	0.001000	9.995947	3.386718	0.080099
 354	1.7650e-01	14.1541	17.621751	-0.000636	-6.361057	-2.155184	-0.050972
 355	1.7700e-01	14.1814	17.913020	0.000727	7.269780	2.463068	0.058254
 356	1.7750e-01	14.2151	18.531966	0.001545	15.448282	5.234019	0.123789
 357	1.7800e-01	14.2697	18.095063	-0.001090	-10.904669	-3.694602	-0.087381
 358	1.7850e-01	14.3114	18.568374	0.001181	11.813392	4.002485	0.094662
 359	1.7900e-01	14.3563	18.677600	0.000273	2.726167	0.923650	0.021845
 360	1.7950e-01	14.3836	18.531966	-0.000363	-3.634890	-1.231534	-0.029127
 361	1.8000e-01	14.4317	19.078094	0.001363	13.630837	4.618252	0.109226
 362	1.8050e-01	14.4910	18.677600	-0.001000	-9.995947	-3.386718	-0.080099
 363	1.8100e-01	14.5039	18.896051	0.000545	5.452335	1.847301	0.043690
 364	1.8150e-01	14.5600	19.296546	0.001000	9.995947	3.386718	0.080099
 365	1.8200e-01	14.5873	19.296546	0.000000	0.000000	0.000000	0.000000
 366	1.8250e-01	14.6418	19.551406	0.000636	6.361057	2.155184	0.050972
 367	1.8300e-01	14.6787	19.332954	-0.000545	-5.452335	-1.847301	-0.043690
 368	1.8350e-01	14.7188	19.587814	0.000636	6.361057	2.155184	0.050972
 369	1.8400e-01	14.7557	20.133943	0.001363	13.630837	4.618252	0.109226
 370	1.8450e-01	14.8039	19.660632	-0.001181	-11.813392	-4.002485	-0.094662
 371	1.8500e-01	14.8279	20.243169	0.001454	14.539559	4.926136	0.116507
 372	1.8550e-01	14.8841	19.879083	-0.000909	-9.087224	-3.078835	-0.072817
 373	1.8600e-01	14.9033	20.243169	0.000909	9.087224	3.078835	0.072817
 374	1.8650e-01	14.9547	20.133943	-0.000273	-2.726167	-0.923650	-0.021845
 375	1.8700e-01	15.0044	20.680072	0.001363	13.630837	4.618252	0.109226
 376	1.8750e-01	15.0349	20.388803	-0.000727	-7.269780	-2.463068	-0.058254
 377	1.8800e-01	15.0686	20.206760	-0.000454	-4.543612	-1.539417	-0.036409
 378	1.8850e-01	15.1151	20.971340	0.001908	19.083171	6.465553	0.152916
 379	1.8900e-01	15.1600	20.752889	-0.000545	-5.452335	-1.847301	-0.043690
 380	1.8950e-01	15.1937	21.044157	0.000727	7.269780	2.463068	0.058254
 381	1.9000e-01	15.2402	20.971340	-0.000182	-1.817445	-0.615767	-0.014563
 382	1.9050e-01	15.2915	21.189792	0.000545	5.452335	1.847301	0.043690
 383	1.9100e-01	15.3172	21.444652	0.000636	6.361057	2.155184	0.050972
 384	1.9150e-01	15.3541	21.299018	-0.000363	-3.634890	-1.231534	-0.029127
 385	1.9200e-01	15.4199	21.808738	0.001272	12.722114	4.310369	0.101944
 386	1.9250e-01	15.4536	21.663103	-0.000363	-3.634890	-1.231534	-0.029127
 387	1.9300e-01	15.4712	21.663103	0.000000	0.000000	0.000000	0.000000
 388	1.9350e-01	15.5129	22.136415	0.001181	11.813392	4.002485	0.094662
 389	1.9400e-01	15.5707	21.954372	-0.000454	-4.543612	-1.539417	-0.036409
 390	1.9450e-01	15.6028	22.209232	0.000636	6.361057	2.155184	0.050972
 391	1.9500e-01	15.6204	22.427683	0.000545	5.452335	1.847301	0.043690
 392	1.9550e-01	15.6782	22.536909	0.000273	2.726167	0.923650	0.021845
 393	1.9600e-01	15.7167	22.500501	-0.000091	-0.908722	-0.307883	-0.007282
 394	1.9650e-01	15.7488	22.900995	0.001000	9.995947	3.386718	0.080099
 395	1.9700e-01	15.8001	22.646135	-0.000636	-6.361057	-2.155184	-0.050972
 396	1.9750e-01	15.8258	22.755361	0.000273	2.726167	0.923650	0.021845
 397	1.9800e-01	15.8851	22.682543	-0.000182	-1.817445	-0.615767	-0.014563
 398	1.9850e-01	15.9220	23.228672	0.001363	13.630837	4.618252	0.109226
 399	1.9900e-01	15.9477	23.337898	0.000273	2.726167	0.923650	0.021845
 400	1.9950e-01	15.9926	23.265081	-0.000182	-1.817445	-0.615767	-0.014563
 401	2.0000e-01	16.0552	23.337898	0.000182	1.817445	0.615767	0.014563
 402	2.0050e-01	16.0728	23.701984	0.000909	9.087224	3.078835	0.072817
 403	2.0100e-01	16.1113	23.374306	-0.000818	-8.178502	-2.770951	-0.065535
 404	2.0150e-01	16.1466	23.847618	0.001181	11.813392	4.002485	0.094662
 405	2.0200e-01	16.1739	23.811209	-0.000091	-0.908722	-0.307883	-0.007282
 406	2.0250e-01	16.2236	24.102478	0.000727	7.269780	2.463068	0.058254
 407	2.0300e-01	16.2749	24.102478	0.000000	0.000000	0.000000	0.000000
 408	2.0350e-01	16.3086	24.320929	0.000545	5.452335	1.847301	0.043690
 409	2.0400e-01	16.3391	24.175295	-0.000363	-3.634890	-1.231534	-0.029127
 410	2.0450e-01	16.3744	24.612198	0.001090	10.904669	3.694602	0.087381
 411	2.0500e-01	16.4273	24.794241	0.000454	4.543612	1.539417	0.036409
 412	2.0550e-01	16.4819	25.012692	0.000545	5.452335	1.847301	0.043690
 413	2.0600e-01	16.5060	25.158327	0.000363	3.634890	1.231534	0.029127
 414	2.0650e-01	16.5653	24.685015	-0.001181	-11.813392	-4.002485	-0.094662
 415	2.0700e-01	16.5910	24.685015	0.000000	0.000000	0.000000	0.000000
 416	2.0750e-01	16.6311	25.085510	0.001000	9.995947	3.386718	0.080099
 417	2.0800e-01	16.6648	24.867058	-0.000545	-5.452335	-1.847301	-0.043690
 418	2.0850e-01	16.7033	25.449595	0.001454	14.539559	4.926136	0.116507
 419	2.0900e-01	16.7482	25.340370	-0.000273	-2.726167	-0.923650	-0.021845
 420	2.0950e-01	16.7851	25.740864	0.001000	9.995947	3.386718	0.080099
 421	2.1000e-01	16.8220	25.522412	-0.000545	-5.452335	-1.847301	-0.043690
 422	2.1050e-01	16.8701	25.922907	0.001000	9.995947	3.386718	0.080099
 423	2.1100e-01	16.9038	25.959315	0.000091	0.908722	0.307883	0.007282
 424	2.1150e-01	16.9455	25.922907	-0.000091	-0.908722	-0.307883	-0.007282
 425	2.1200e-01	16.9985	26.323401	0.001000	9.995947	3.386718	0.080099
 426	2.1250e-01	17.0289	26.359810	0.000091	0.908722	0.307883	0.007282
 427	2.1300e-01	17.0819	25.740864	-0.001545	-15.448282	-5.234019	-0.123789
 428	2.1350e-01	17.1268	26.505444	0.001908	19.083171	6.465553	0.152916
 429	2.1400e-01	17.1316	26.250584	-0.000636	-6.361057	-2.155184	-0.050972
 430	2.1450e-01	17.1669	26.687487	0.001090	10.904669	3.694602	0.087381
 431	2.1500e-01	17.2295	26.905938	0.000545	5.452335	1.847301	0.043690
 432	2.1550e-01	17.2712	26.833121	-0.000182	-1.817445	-0.615767	-0.014563
 433	2.1600e-01	17.2968	26.469035	-0.000909	-9.087224	-3.078835	-0.072817
 434	2.1650e-01	17.3530	26.869530	0.001000	9.995947	3.386718	0.080099
 435	2.1700e-01	17.4011	27.306433	0.001090	10.904669	3.694602	0.087381
 436	2.1750e-01	17.4236	27.087981	-0.000545	-5.452335	-1.847301	-0.043690
 437	2.1800e-01	17.4781	27.379250	0.000727	7.269780	2.463068	0.058254
 438	2.1850e-01	17.5166	27.706927	0.000818	8.178502	2.770951	0.065535
 439	2.1900e-01	17.5615	27.634110	-0.000182	-1.817445	-0.615767	-0.014563
 440	2.1950e-01	17.6081	27.743336	0.000273	2.726167	0.923650	0.021845
 441	2.2000e-01	17.6129	27.816153	0.000182	1.817445	0.615767	0.014563
 442	2.2050e-01	17.6674	27.779744	-0.000091	-0.908722	-0.307883	-0.007282
 443	2.2100e-01	17.7059	28.071013	0.000727	7.269780	2.463068	0.058254
 444	2.2150e-01	17.7524	27.888970	-0.000454	-4.543612	-1.539417	-0.036409
 445	2.2200e-01	17.7925	28.289464	0.001000	9.995947	3.386718	0.080099
 446	2.2250e-01	17.8310	28.435099	0.000363	3.634890	1.231534	0.029127
 447	2.2300e-01	17.8744	28.362281	-0.000182	-1.817445	-0.615767	-0.014563
 448	2.2350e-01	17.9016	29.017636	0.001636	16.357004	5.541903	0.131071
 449	2.2400e-01	17.9530	28.544324	-0.001181	-11.813392	-4.002485	-0.094662
 450	2.2450e-01	17.9979	28.507916	-0.000091	-0.908722	-0.307883	-0.007282
 451	2.2500e-01	18.0268	29.163270	0.001636	16.357004	5.541903	0.131071
 452	2.2550e-01	18.0925	29.017636	-0.000363	-3.634890	-1.231534	-0.029127
 453	2.2600e-01	18.1262	29.418130	0.001000	9.995947	3.386718	0.080099
 454	2.2650e-01	18.1439	28.872002	-0.001363	-13.630837	-4.618252	-0.109226
 455	2.2700e-01	18.1920	29.308904	0.001090	10.904669	3.694602	0.087381
 456	2.2750e-01	18.2305	29.126862	-0.000454	-4.543612	-1.539417	-0.036409
 457	2.2800e-01	18.2690	29.345313	0.000545	5.452335	1.847301	0.043690
 458	2.2850e-01	18.3187	29.454539	0.000273	2.726167	0.923650	0.021845
 459	2.2900e-01	18.3540	29.745807	0.000727	7.269780	2.463068	0.058254
 460	2.2950e-01	18.3861	30.037076	0.000727	7.269780	2.463068	0.058254
 461	2.3000e-01	18.4342	29.927850	-0.000273	-2.726167	-0.923650	-0.021845
 462	2.3050e-01	18.4840	29.745807	-0.000454	-4.543612	-1.539417	-0.036409
 463	2.3100e-01	18.5128	30.619613	0.002181	21.809339	7.389204	0.174761
 464	2.3150e-01	18.5530	30.291936	-0.000818	-8.178502	-2.770951	-0.065535
 465	2.3200e-01	18.5754	30.437570	0.000363	3.634890	1.231534	0.029127
 466	2.3250e-01	18.6316	30.728839	0.000727	7.269780	2.463068	0.058254
 467	2.3300e-01	18.6925	30.073485	-0.001636	-16.357004	-5.541903	-0.131071
 468	2.3350e-01	18.7198	30.546796	0.001181	11.813392	4.002485	0.094662
 469	2.3400e-01	18.7727	30.765248	0.000545	5.452335	1.847301	0.043690
 470	2.3450e-01	18.8000	30.874473	0.000273	2.726167	0.923650	0.021845
 471	2.3500e-01	18.8225	31.238559	0.000909	9.087224	3.078835	0.072817
 472	2.3550e-01	18.8882	31.056516	-0.000454	-4.543612	-1.539417	-0.036409
 473	2.3600e-01	18.9155	30.910882	-0.000363	-3.634890	-1.231534	-0.029127
 474	2.3650e-01	18.9412	31.311376	0.001000	9.995947	3.386718	0.080099
 475	2.3700e-01	18.9813	31.457010	0.000363	3.634890	1.231534	0.029127
 476	2.3750e-01	19.0455	31.602645	0.000363	3.634890	1.231534	0.029127
 477	2.3800e-01	19.0759	31.493419	-0.000273	-2.726167	-0.923650	-0.021845
 478	2.3850e-01	19.1241	31.893913	0.001000	9.995947	3.386718	0.080099
 479	2.3900e-01	19.1658	31.748279	-0.000363	-3.634890	-1.231534	-0.029127
 480	2.3950e-01	19.1818	31.784688	0.000091	0.908722	0.307883	0.007282
 481	2.4000e-01	19.2187	31.821096	0.000091	0.908722	0.307883	0.007282
 482	2.4050e-01	19.2620	32.148773	0.000818	8.178502	2.770951	0.065535
 483	2.4100e-01	19.3230	32.039548	-0.000273	-2.726167	-0.923650	-0.021845
 484	2.4150e-01	19.3374	32.330816	0.000727	7.269780	2.463068	0.058254
 485	2.4200e-01	19.3872	32.112365	-0.000545	-5.452335	-1.847301	-0.043690
 486	2.4250e-01	19.4096	32.512859	0.001000	9.995947	3.386718	0.080099
 487	2.4300e-01	19.4561	32.512859	0.000000	0.000000	0.000000	0.000000
 488	2.4350e-01	19.5203	32.622085	0.000273	2.726167	0.923650	0.021845
 489	2.4400e-01	19.5460	32.949762	0.000818	8.178502	2.770951	0.065535
 490	2.4450e-01	19.5829	33.058988	0.000273	2.726167	0.923650	0.021845
 491	2.4500e-01	19.6358	33.131805	0.000182	1.817445	0.615767	0.014563
 492	2.4550e-01	19.6454	33.095396	-0.000091	-0.908722	-0.307883	-0.007282
 493	2.4600e-01	19.7353	33.386665	0.000727	7.269780	2.463068	0.058254
 494	2.4650e-01	19.7433	33.386665	0.000000	0.000000	0.000000	0.000000
 495	2.4700e-01	19.7946	33.641525	0.000636	6.361057	2.155184	0.050972
 496	2.4750e-01	19.8299	33.459482	-0.000454	-4.543612	-1.539417	-0.036409
 497	2.4800e-01	19.8732	33.495891	0.000091	0.908722	0.307883	0.007282
 498	2.4850e-01	19.9198	33.641525	0.000363	3.634890	1.231534	0.029127
 499	2.4900e-01	19.9583	33.750751	0.000273	2.726167	0.923650	0.021845
 500	2.4950e-01	20.0080	34.005611	0.000636	6.361057	2.155184	0.050972
 501	2.5000e-01	20.0305	33.896385	-0.000273	-2.726167	-0.923650	-0.021845
 502	2.5050e-01	19.9791	33.605117	0.000727	7.269780	2.463068	-0.058254
 503	2.5100e-01	19.9294	33.532299	0.000182	1.817445	0.615767	-0.014563
 504	2.5150e-01	19.8989	33.823568	-0.000727	-7.269780	-2.463068	0.058254
 505	2.5200e-01	19.8716	33.605117	0.000545	5.452335	1.847301	-0.043690
 506	2.5250e-01	19.8187	33.568708	0.000091	0.908722	0.307883	-0.007282
 507	2.5300e-01	19.7786	33.495891	0.000182	1.817445	0.615767	-0.014563
 508	2.5350e-01	19.7369	32.986171	0.001272	12.722114	4.310369	-0.101944
 509	2.5400e-01	19.7032	33.277439	-0.000727	-7.269780	-2.463068	0.058254
 510	2.5450e-01	19.6502	33.022579	0.000636	6.361057	2.155184	-0.050972
 511	2.5500e-01	19.6214	32.876945	0.000363	3.634890	1.231534	-0.029127
 512	2.5550e-01	19.5797	33.058988	-0.000454	-4.543612	-1.539417	0.036409
 513	2.5600e-01	19.5363	33.313848	-0.000636	-6.361057	-2.155184	0.050972
 514	2.5650e-01	19.5011	32.986171	0.000818	8.178502	2.770951	-0.065535
 515	2.5700e-01	19.4626	32.767719	0.000545	5.452335	1.847301	-0.043690
 516	2.5750e-01	19.3952	32.585676	0.000454	4.543612	1.539417	-0.036409
 517	2.5800e-01	19.4080	32.658494	0.000182	1.817445	0.615767	0.014563
 518	2.5850e-01	19.3583	32.257999	0.001000	9.995947	3.386718	-0.080099
 519	2.5900e-01	19.3085	32.476451	-0.000545	-5.452335	-1.847301	0.043690
 520	2.5950e-01	19.2700	32.476451	-0.000000	-0.000000	-0.000000	0.000000
 521	2.6000e-01	19.2139	32.003139	0.001181	11.813392	4.002485	-0.094662
 522	2.6050e-01	19.1786	32.294408	-0.000727	-7.269780	-2.463068	0.058254
 523	2.6100e-01	19.1321	32.039548	0.000636	6.361057	2.155184	-0.050972
 524	2.6150e-01	19.1080	32.221591	-0.000454	-4.543612	-1.539417	0.036409
 525	2.6200e-01	19.0567	31.748279	0.001181	11.813392	4.002485	-0.094662
 526	2.6250e-01	19.0134	31.711871	0.000091	0.908722	0.307883	-0.007282
 527	2.6300e-01	18.9829	31.930322	-0.000545	-5.452335	-1.847301	0.043690
 528	2.6350e-01	18.9348	31.602645	0.000818	8.178502	2.770951	-0.065535
 529	2.6400e-01	18.8963	31.639053	-0.000091	-0.908722	-0.307883	0.007282
 530	2.6450e-01	18.8626	31.493419	0.000363	3.634890	1.231534	-0.029127
 531	2.6500e-01	18.8225	31.165742	0.000818	8.178502	2.770951	-0.065535
 532	2.6550e-01	18.7840	31.238559	-0.000182	-1.817445	-0.615767	0.014563
 533	2.6600e-01	18.7519	31.129333	0.000273	2.726167	0.923650	-0.021845
 534	2.6650e-01	18.6973	31.165742	-0.000091	-0.908722	-0.307883	0.007282
 535	2.6700e-01	18.6508	31.347785	-0.000454	-4.543612	-1.539417	0.036409
 536	2.6750e-01	18.6267	30.728839	0.001545	15.448282	5.234019	-0.123789
 537	2.6800e-01	18.5850	31.056516	-0.000818	-8.178502	-2.770951	0.065535
 538	2.6850e-01	18.5497	30.473979	0.001454	14.539559	4.926136	-0.116507
 539	2.6900e-01	18.5032	30.765248	-0.000727	-7.269780	-2.463068	0.058254
 540	2.6950e-01	18.4679	30.473979	0.000727	7.269780	2.463068	-0.058254
 541	2.7000e-01	18.4246	30.255527	0.000545	5.452335	1.847301	-0.043690
 542	2.7050e-01	18.3829	30.037076	0.000545	5.452335	1.847301	-0.043690
 543	2.7100e-01	18.3492	30.692430	-0.001636	-16.357004	-5.541903	0.131071
 544	2.7150e-01	18.3091	29.927850	0.001908	19.083171	6.465553	-0.152916
 545	2.7200e-01	18.2610	30.109893	-0.000454	-4.543612	-1.539417	0.036409
 546	2.7250e-01	18.2417	29.745807	0.000909	9.087224	3.078835	-0.072817
 547	2.7300e-01	18.1840	30.000667	-0.000636	-6.361057	-2.155184	0.050972
 548	2.7350e-01	18.1391	29.745807	0.000636	6.361057	2.155184	-0.050972
 549	2.7400e-01	18.0893	29.745807	-0.000000	-0.000000	-0.000000	0.000000
 550	2.7450e-01	18.0428	29.709399	0.000091	0.908722	0.307883	-0.007282
 551	2.7500e-01	18.0123	29.418130	0.000727	7.269780	2.463068	-0.058254
 552	2.7550e-01	17.9851	29.636582	-0.000545	-5.452335	-1.847301	0.043690
 553	2.7600e-01	17.9337	29.782216	-0.000363	-3.634890	-1.231534	0.029127
 554	2.7650e-01	17.9209	29.054044	0.001817	18.174449	6.157670	-0.145634
 555	2.7700e-01	17.8776	28.944819	0.000273	2.726167	0.923650	-0.021845
 556	2.7750e-01	17.8246	29.163270	-0.000545	-5.452335	-1.847301	0.043690
 557	2.7800e-01	17.7717	28.835593	0.000818	8.178502	2.770951	-0.065535
 558	2.7850e-01	17.7348	28.981227	-0.000363	-3.634890	-1.231534	0.029127
 559	2.7900e-01	17.7188	28.362281	0.001545	15.448282	5.234019	-0.123789
 560	2.7950e-01	17.6642	28.762776	-0.001000	-9.995947	-3.386718	0.080099
 561	2.8000e-01	17.6161	28.653550	0.000273	2.726167	0.923650	-0.021845
 562	2.8050e-01	17.5728	28.398690	0.000636	6.361057	2.155184	-0.050972
 563	2.8100e-01	17.5359	28.253056	0.000363	3.634890	1.231534	-0.029127
 564	2.8150e-01	17.4861	28.398690	-0.000363	-3.634890	-1.231534	0.029127
 565	2.8200e-01	17.4508	28.180239	0.000545	5.452335	1.847301	-0.043690
 566	2.8250e-01	17.4236	27.961787	0.000545	5.452335	1.847301	-0.043690
 567	2.8300e-01	17.3787	28.180239	-0.000545	-5.452335	-1.847301	0.043690
 568	2.8350e-01	17.3402	27.743336	0.001090	10.904669	3.694602	-0.087381
 569	2.8400e-01	17.3081	27.743336	-0.000000	-0.000000	-0.000000	0.000000
 570	2.8450e-01	17.2599	27.779744	-0.000091	-0.908722	-0.307883	0.007282
 571	2.8500e-01	17.2086	27.597701	0.000454	4.543612	1.539417	-0.036409
 572	2.8550e-01	17.2102	27.197207	-0.001000	-9.995947	-3.386718	-0.080099
 573	2.8600e-01	17.1460	27.233616	-0.000091	-0.908722	-0.307883	0.007282
 574	2.8650e-01	17.1043	27.015164	0.000545	5.452335	1.847301	-0.043690
 575	2.8700e-01	17.0626	27.160798	-0.000363	-3.634890	-1.231534	0.029127
 576	2.8750e-01	17.0241	26.942347	0.000545	5.452335	1.847301	-0.043690
 577	2.8800e-01	16.9856	27.087981	-0.000363	-3.634890	-1.231534	0.029127
 578	2.8850e-01	16.9359	26.869530	0.000545	5.452335	1.847301	-0.043690
 579	2.8900e-01	16.8894	26.723895	0.000363	3.634890	1.231534	-0.029127
 580	2.8950e-01	16.8717	27.051573	-0.000818	-8.178502	-2.770951	0.065535
 581	2.9000e-01	16.8316	26.286993	0.001908	19.083171	6.465553	-0.152916
 582	2.9050e-01	16.7803	26.614670	-0.000818	-8.178502	-2.770951	0.065535
 583	2.9100e-01	16.7434	26.651078	-0.000091	-0.908722	-0.307883	0.007282
 584	2.9150e-01	16.7097	26.396218	0.000636	6.361057	2.155184	-0.050972
 585	2.9200e-01	16.6808	26.068541	0.000818	8.178502	2.770951	-0.065535
 586	2.9250e-01	16.6247	25.959315	0.000273	2.726167	0.923650	-0.021845
 587	2.9300e-01	16.5878	25.922907	0.000091	0.908722	0.307883	-0.007282
 588	2.9350e-01	16.5204	25.704455	0.000545	5.452335	1.847301	-0.043690
 589	2.9400e-01	16.4963	25.959315	-0.000636	-6.361057	-2.155184	0.050972
 590	2.9450e-01	16.4691	25.558821	0.001000	9.995947	3.386718	-0.080099
 591	2.9500e-01	16.4289	25.558821	-0.000000	-0.000000	-0.000000	0.000000
 592	2.9550e-01	16.3744	25.449595	0.000273	2.726167	0.923650	-0.021845
 593	2.9600e-01	16.3455	25.158327	0.000727	7.269780	2.463068	-0.058254
 594	2.9650e-01	16.2942	25.777272	-0.001545	-15.448282	-5.234019	0.123789
 595	2.9700e-01	16.2429	25.121918	0.001636	16.357004	5.541903	-0.131071
 596	2.9750e-01	16.2252	25.267552	-0.000363	-3.634890	-1.231534	0.029127
 597	2.9800e-01	16.1979	24.976284	0.000727	7.269780	2.463068	-0.058254
 598	2.9850e-01	16.1546	24.903467	0.000182	1.817445	0.615767	-0.014563
 599	2.9900e-01	16.0872	24.612198	0.000727	7.269780	2.463068	-0.058254
 600	2.9950e-01	16.0664	24.502972	0.000273	2.726167	0.923650	-0.021845
 601	3.0000e-01	16.0263	24.430155	0.000182	1.817445	0.615767	-0.014563
 602	3.0050e-01	15.9750	24.685015	-0.000636	-6.361057	-2.155184	0.050972
 603	3.0100e-01	15.9461	24.430155	0.000636	6.361057	2.155184	-0.050972
 604	3.0150e-01	15.8867	24.357338	0.000182	1.817445	0.615767	-0.014563
 605	3.0200e-01	15.8723	24.138887	0.000545	5.452335	1.847301	-0.043690
 606	3.0250e-01	15.8338	24.102478	0.000091	0.908722	0.307883	-0.007282
 607	3.0300e-01	15.7792	23.884026	0.000545	5.452335	1.847301	-0.043690
 608	3.0350e-01	15.7327	23.884026	-0.000000	-0.000000	-0.000000	0.000000
 609	3.0400e-01	15.6862	23.847618	0.000091	0.908722	0.307883	-0.007282
 610	3.0450e-01	15.6637	23.337898	0.001272	12.722114	4.310369	-0.101944
 611	3.0500e-01	15.6140	23.811209	-0.001181	-11.813392	-4.002485	0.094662
 612	3.0550e-01	15.5771	23.665575	0.000363	3.634890	1.231534	-0.029127
 613	3.0600e-01	15.5129	23.192264	0.001181	11.813392	4.002485	-0.094662
 614	3.0650e-01	15.5017	23.556349	-0.000909	-9.087224	-3.078835	0.072817
 615	3.0700e-01	15.4552	23.010221	0.001363	13.630837	4.618252	-0.109226
 616	3.0750e-01	15.3990	23.010221	-0.000000	-0.000000	-0.000000	0.000000
 617	3.0800e-01	15.3718	23.301489	-0.000727	-7.269780	-2.463068	0.058254
 618	3.0850e-01	15.3605	22.646135	0.001636	16.357004	5.541903	-0.131071
 619	3.0900e-01	15.3317	22.609726	0.000091	0.908722	0.307883	-0.007282
 620	3.0950e-01	15.2851	22.682543	-0.000182	-1.817445	-0.615767	0.014563
 621	3.1000e-01	15.2113	22.500501	0.000454	4.543612	1.539417	-0.036409
 622	3.1050e-01	15.1841	22.318458	0.000454	4.543612	1.539417	-0.036409
 623	3.1100e-01	15.1616	22.209232	0.000273	2.726167	0.923650	-0.021845
 624	3.1150e-01	15.1103	22.464092	-0.000636	-6.361057	-2.155184	0.050972
 625	3.1200e-01	15.0734	22.136415	0.000818	8.178502	2.770951	-0.065535
 626	3.1250e-01	15.0140	21.881555	0.000636	6.361057	2.155184	-0.050972
 627	3.1300e-01	14.9723	21.772329	0.000273	2.726167	0.923650	-0.021845
 628	3.1350e-01	14.9498	21.735920	0.000091	0.908722	0.307883	-0.007282
 629	3.1400e-01	14.9081	21.917963	-0.000454	-4.543612	-1.539417	0.036409
 630	3.1450e-01	14.8520	21.626695	0.000727	7.269780	2.463068	-0.058254
 631	3.1500e-01	14.8071	21.481060	0.000363	3.634890	1.231534	-0.029127
 632	3.1550e-01	14.7846	21.226200	0.000636	6.361057	2.155184	-0.050972
 633	3.1600e-01	14.7525	21.663103	-0.001090	-10.904669	-3.694602	0.087381
 634	3.1650e-01	14.7044	21.044157	0.001545	15.448282	5.234019	-0.123789
 635	3.1700e-01	14.6611	21.481060	-0.001090	-10.904669	-3.694602	0.087381
 636	3.1750e-01	14.6194	20.607255	0.002181	21.809339	7.389204	-0.174761
 637	3.1800e-01	14.5905	20.789297	-0.000454	-4.543612	-1.539417	0.036409
 638	3.1850e-01	14.5424	20.825706	-0.000091	-0.908722	-0.307883	0.007282
 639	3.1900e-01	14.4830	20.352395	0.001181	11.813392	4.002485	-0.094662
 640	3.1950e-01	14.4269	20.461620	-0.000273	-2.726167	-0.923650	0.021845
 641	3.2000e-01	14.4140	20.643663	-0.000454	-4.543612	-1.539417	0.036409
 642	3.2050e-01	14.3803	19.842674	0.001999	19.991894	6.773437	-0.160198
 643	3.2100e-01	14.3274	20.206760	-0.000909	-9.087224	-3.078835	0.072817
 644	3.2150e-01	14.2873	20.097534	0.000273	2.726167	0.923650	-0.021845
 645	3.2200e-01	14.2568	20.061126	0.000091	0.908722	0.307883	-0.007282
 646	3.2250e-01	14.2167	19.879083	0.000454	4.543612	1.539417	-0.036409
 647	3.2300e-01	14.1830	19.988309	-0.000273	-2.726167	-0.923650	0.021845
 648	3.2350e-01	14.1445	19.879083	0.000273	2.726167	0.923650	-0.021845
 649	3.2400e-01	14.0996	19.478589	0.001000	9.995947	3.386718	-0.080099
 650	3.2450e-01	14.0579	19.624223	-0.000363	-3.634890	-1.231534	0.029127
 651	3.2500e-01	14.0306	19.114503	0.001272	12.722114	4.310369	-0.101944
 652	3.2550e-01	13.9873	19.114503	-0.000000	-0.000000	-0.000000	0.000000
 653	3.2600e-01	13.9440	19.114503	-0.000000	-0.000000	-0.000000	0.000000
 654	3.2650e-01	13.9151	19.041686	0.000182	1.817445	0.615767	-0.014563
 655	3.2700e-01	13.8638	18.968869	0.000182	1.817445	0.615767	-0.014563
 656	3.2750e-01	13.8140	18.932460	0.000091	0.908722	0.307883	-0.007282
 657	3.2800e-01	13.7675	18.531966	0.001000	9.995947	3.386718	-0.080099
 658	3.2850e-01	13.7306	18.568374	-0.000091	-0.908722	-0.307883	0.007282
 659	3.2900e-01	13.7098	18.240697	0.000818	8.178502	2.770951	-0.065535
 660	3.2950e-01	13.6713	18.349923	-0.000273	-2.726167	-0.923650	0.021845
 661	3.3000e-01	13.6360	18.204288	0.000363	3.634890	1.231534	-0.029127
 662	3.3050e-01	13.5702	18.131471	0.000182	1.817445	0.615767	-0.014563
 663	3.3100e-01	13.5365	18.058654	0.000182	1.817445	0.615767	-0.014563
 664	3.3150e-01	13.5028	17.913020	0.000363	3.634890	1.231534	-0.029127
 665	3.3200e-01	13.4643	18.131471	-0.000545	-5.452335	-1.847301	0.043690
 666	3.3250e-01	13.4146	17.840203	0.000727	7.269780	2.463068	-0.058254
 667	3.3300e-01	13.3777	17.730977	0.000273	2.726167	0.923650	-0.021845
 668	3.3350e-01	13.3087	17.694568	0.000091	0.908722	0.307883	-0.007282
 669	3.3400e-01	13.2943	17.476117	0.000545	5.452335	1.847301	-0.043690
 670	3.3450e-01	13.2606	17.112031	0.000909	9.087224	3.078835	-0.072817
 671	3.3500e-01	13.2301	17.330483	-0.000545	-5.452335	-1.847301	0.043690
 672	3.3550e-01	13.1964	16.675128	0.001636	16.357004	5.541903	-0.131071
 673	3.3600e-01	13.1451	16.638720	0.000091	0.908722	0.307883	-0.007282
 674	3.3650e-01	13.1146	17.257665	-0.001545	-15.448282	-5.234019	0.123789
 675	3.3700e-01	13.0536	15.910548	0.003362	33.622730	11.391689	-0.269423
 676	3.3750e-01	13.0071	16.820763	-0.002272	-22.718061	-7.697087	0.182043
 677	3.3800e-01	13.0071	16.602311	0.000545	5.452335	1.847301	-0.043690
 678	3.3850e-01	12.9654	15.910548	0.001727	17.265726	5.849786	-0.138353
 679	3.3900e-01	12.9446	16.238225	-0.000818	-8.178502	-2.770951	0.065535
 680	3.3950e-01	12.8820	15.874140	0.000909	9.087224	3.078835	-0.072817
 681	3.4000e-01	12.8210	15.764914	0.000273	2.726167	0.923650	-0.021845
 682	3.4050e-01	12.7697	15.801322	-0.000091	-0.908722	-0.307883	0.007282
 683	3.4100e-01	12.7232	16.019774	-0.000545	-5.452335	-1.847301	0.043690
 684	3.4150e-01	12.6959	15.655688	0.000909	9.087224	3.078835	-0.072817
 685	3.4200e-01	12.6622	15.728505	-0.000182	-1.817445	-0.615767	0.014563
 686	3.4250e-01	12.6205	15.473645	0.000636	6.361057	2.155184	-0.050972
 687	3.4300e-01	12.5852	15.619280	-0.000363	-3.634890	-1.231534	0.029127
 688	3.4350e-01	12.5435	15.000334	0.001545	15.448282	5.234019	-0.123789
 689	3.4400e-01	12.5098	14.927517	0.000182	1.817445	0.615767	-0.014563
 690	3.4450e-01	12.4649	15.218785	-0.000727	-7.269780	-2.463068	0.058254
 691	3.4500e-01	12.4216	14.745474	0.001181	11.813392	4.002485	-0.094662
 692	3.4550e-01	12.3943	14.381388	0.000909	9.087224	3.078835	-0.072817
 693	3.4600e-01	12.3526	14.891108	-0.001272	-12.722114	-4.310369	0.101944
 694	3.4650e-01	12.2852	14.344979	0.001363	13.630837	4.618252	-0.109226
 695	3.4700e-01	12.2531	14.090119	0.000636	6.361057	2.155184	-0.050972
 696	3.4750e-01	12.2307	14.563431	-0.001181	-11.813392	-4.002485	0.094662
 697	3.4800e-01	12.1986	14.490614	0.000182	1.817445	0.615767	-0.014563
 698	3.4850e-01	12.1456	13.835259	0.001636	16.357004	5.541903	-0.131071
 699	3.4900e-01	12.1152	13.689625	0.000363	3.634890	1.231534	-0.029127
 700	3.4950e-01	12.0686	13.762442	-0.000182	-1.817445	-0.615767	0.014563
 701	3.5000e-01	12.0013	13.726034	0.000091	0.908722	0.307883	-0.007282
 702	3.5050e-01	11.9804	13.762442	-0.000091	-0.908722	-0.307883	0.007282
 703	3.5100e-01	11.9259	13.434765	0.000818	8.178502	2.770951	-0.065535
 704	3.5150e-01	11.9082	13.216313	0.000545	5.452335	1.847301	-0.043690
 705	3.5200e-01	11.8665	12.706593	0.001272	12.722114	4.310369	-0.101944
 706	3.5250e-01	11.8280	13.107088	-0.001000	-9.995947	-3.386718	0.080099
 707	3.5300e-01	11.7783	13.216313	-0.000273	-2.726167	-0.923650	0.021845
 708	3.5350e-01	11.7366	12.961453	0.000636	6.361057	2.155184	-0.050972
 709	3.5400e-01	11.6981	12.779411	0.000454	4.543612	1.539417	-0.036409
 710	3.5450e-01	11.6660	12.488142	0.000727	7.269780	2.463068	-0.058254
 711	3.5500e-01	11.6211	12.815819	-0.000818	-8.178502	-2.770951	0.065535
 712	3.5550e-01	11.5810	12.706593	0.000273	2.726167	0.923650	-0.021845
 713	3.5600e-01	11.5585	12.451733	0.000636	6.361057	2.155184	-0.050972
 714	3.5650e-01	11.5120	12.196873	0.000636	6.361057	2.155184	-0.050972
 715	3.5700e-01	11.4350	12.087648	0.000273	2.726167	0.923650	-0.021845
 716	3.5750e-01	11.4077	11.723562	0.000909	9.087224	3.078835	-0.072817
 717	3.5800e-01	11.3660	11.650745	0.000182	1.817445	0.615767	-0.014563
 718	3.5850e-01	11.3419	11.614336	0.000091	0.908722	0.307883	-0.007282
 719	3.5900e-01	11.3082	11.468702	0.000363	3.634890	1.231534	-0.029127
 720	3.5950e-01	11.2762	11.541519	-0.000182	-1.817445	-0.615767	0.014563
 721	3.6000e-01	11.2184	11.104616	0.001090	10.904669	3.694602	-0.087381
 722	3.6050e-01	11.1975	11.286659	-0.000454	-4.543612	-1.539417	0.036409
 723	3.6100e-01	11.1494	11.031799	0.000636	6.361057	2.155184	-0.050972
 724	3.6150e-01	11.0949	10.485670	0.001363	13.630837	4.618252	-0.109226
 725	3.6200e-01	11.0564	11.177433	-0.001727	-17.265726	-5.849786	0.138353
 726	3.6250e-01	11.0243	10.522079	0.001636	16.357004	5.541903	-0.131071
 727	3.6300e-01	10.9569	10.813347	-0.000727	-7.269780	-2.463068	0.058254
 728	3.6350e-01	10.9200	10.449262	0.000909	9.087224	3.078835	-0.072817
 729	3.6400e-01	10.9024	10.522079	-0.000182	-1.817445	-0.615767	0.014563
 730	3.6450e-01	10.8735	10.667713	-0.000363	-3.634890	-1.231534	0.029127
 731	3.6500e-01	10.8286	10.121584	0.001363	13.630837	4.618252	-0.109226
 732	3.6550e-01	10.7820	9.975950	0.000363	3.634890	1.231534	-0.029127
 733	3.6600e-01	10.7147	10.048767	-0.000182	-1.817445	-0.615767	0.014563
 734	3.6650e-01	10.6970	9.866724	0.000454	4.543612	1.539417	-0.036409
 735	3.6700e-01	10.6730	9.939542	-0.000182	-1.817445	-0.615767	0.014563
 736	3.6750e-01	10.6377	9.174961	0.001908	19.083171	6.465553	-0.152916
 737	3.6800e-01	10.6008	9.393413	-0.000545	-5.452335	-1.847301	0.043690
 738	3.6850e-01	10.5575	9.102144	0.000727	7.269780	2.463068	-0.058254
 739	3.6900e-01	10.5109	9.211370	-0.000273	-2.726167	-0.923650	0.021845
 740	3.6950e-01	10.4596	9.393413	-0.000454	-4.543612	-1.539417	0.036409
 741	3.7000e-01	10.4211	8.883693	0.001272	12.722114	4.310369	-0.101944
 742	3.7050e-01	10.4034	8.665241	0.000545	5.452335	1.847301	-0.043690
 743	3.7100e-01	10.3585	8.191930	0.001181	11.813392	4.002485	-0.094662
 744	3.7150e-01	10.2992	8.119113	0.000182	1.817445	0.615767	-0.014563
 745	3.7200e-01	10.2414	8.046296	0.000182	1.817445	0.615767	-0.014563
 746	3.7250e-01	10.2318	7.973478	0.000182	1.817445	0.615767	-0.014563
 747	3.7300e-01	10.1676	8.082704	-0.000273	-2.726167	-0.923650	0.021845
 748	3.7350e-01	10.1275	8.337564	-0.000636	-6.361057	-2.155184	0.050972
 749	3.7400e-01	10.0922	7.937070	0.001000	9.995947	3.386718	-0.080099
 750	3.7450e-01	10.0521	7.791435	0.000363	3.634890	1.231534	-0.029127
 751	3.7500e-01	10.0393	7.682210	0.000273	2.726167	0.923650	-0.021845
 752	3.7550e-01	10.0040	7.500167	0.000454	4.543612	1.539417	-0.036409
 753	3.7600e-01	9.9446	7.281715	0.000545	5.452335	1.847301	-0.043690
 754	3.7650e-01	9.8997	7.354533	-0.000182	-1.817445	-0.615767	0.014563
 755	3.7700e-01	9.8452	7.208898	0.000363	3.634890	1.231534	-0.029127
 756	3.7750e-01	9.8211	6.808404	0.001000	9.995947	3.386718	-0.080099
 757	3.7800e-01	9.8051	7.026855	-0.000545	-5.452335	-1.847301	0.043690
 758	3.7850e-01	9.7409	6.699178	0.000818	8.178502	2.770951	-0.065535
 759	3.7900e-01	9.6912	6.990447	-0.000727	-7.269780	-2.463068	0.058254
 760	3.7950e-01	9.6414	6.771995	0.000545	5.452335	1.847301	-0.043690
 761	3.8000e-01	9.6190	6.225867	0.001363	13.630837	4.618252	-0.109226
 762	3.8050e-01	9.5741	6.225867	-0.000000	-0.000000	-0.000000	0.000000
 763	3.8100e-01	9.5179	5.861781	0.000909	9.087224	3.078835	-0.072817
 764	3.8150e-01	9.4810	5.898189	-0.000091	-0.908722	-0.307883	0.007282
 765	3.8200e-01	9.4714	5.752555	0.000363	3.634890	1.231534	-0.029127
 766	3.8250e-01	9.4088	6.007415	-0.000636	-6.361057	-2.155184	0.050972
 767	3.8300e-01	9.3896	6.007415	-0.000000	-0.000000	-0.000000	0.000000
 768	3.8350e-01	9.3799	5.497695	0.001272	12.722114	4.310369	-0.101944
 769	3.8400e-01	9.3094	5.534104	-0.000091	-0.908722	-0.307883	0.007282
 770	3.8450e-01	9.2677	5.388469	0.000363	3.634890	1.231534	-0.029127
 771	3.8500e-01	9.2243	5.024384	0.000909	9.087224	3.078835	-0.072817
 772	3.8550e-01	9.1826	4.878749	0.000363	3.634890	1.231534	-0.029127
 773	3.8600e-01	9.1457	4.842341	0.000091	0.908722	0.307883	-0.007282
 774	3.8650e-01	9.0976	4.587481	0.000636	6.361057	2.155184	-0.050972
 775	3.8700e-01	9.0591	4.004943	0.001454	14.539559	4.926136	-0.116507
 776	3.8750e-01	9.0286	4.623889	-0.001545	-15.448282	-5.234019	0.123789
 777	3.8800e-01	8.9789	4.405438	0.000545	5.452335	1.847301	-0.043690
 778	3.8850e-01	8.9500	4.114169	0.000727	7.269780	2.463068	-0.058254
 779	3.8900e-01	8.8907	4.223395	-0.000273	-2.726167	-0.923650	0.021845
 780	3.8950e-01	8.8506	3.895718	0.000818	8.178502	2.770951	-0.065535
 781	3.9000e-01	8.8121	4.041352	-0.000363	-3.634890	-1.231534	0.029127
 782	3.9050e-01	8.7543	3.677266	0.000909	9.087224	3.078835	-0.072817
 783	3.9100e-01	8.7655	3.677266	0.000000	0.000000	0.000000	0.000000
 784	3.9150e-01	8.7158	3.131138	0.001363	13.630837	4.618252	-0.109226
 785	3.9200e-01	8.6420	3.240363	-0.000273	-2.726167	-0.923650	0.021845
 786	3.9250e-01	8.6211	3.203955	0.000091	0.908722	0.307883	-0.007282
 787	3.9300e-01	8.5907	3.021912	0.000454	4.543612	1.539417	-0.036409
 788	3.9350e-01	8.5666	2.839869	0.000454	4.543612	1.539417	-0.036409
 789	3.9400e-01	8.5040	2.803460	0.000091	0.908722	0.307883	-0.007282
 790	3.9450e-01	8.4607	2.621418	0.000454	4.543612	1.539417	-0.036409
 791	3.9500e-01	8.4318	2.475783	0.000363	3.634890	1.231534	-0.029127
 792	3.9550e-01	8.3869	2.475783	-0.000000	-0.000000	-0.000000	0.000000
 793	3.9600e-01	8.3516	2.184515	0.000727	7.269780	2.463068	-0.058254
 794	3.9650e-01	8.2971	2.257332	-0.000182	-1.817445	-0.615767	0.014563
 795	3.9700e-01	8.2586	1.966063	0.000727	7.269780	2.463068	-0.058254
 796	3.9750e-01	8.1976	1.966063	-0.000000	-0.000000	-0.000000	0.000000
 797	3.9800e-01	8.1896	1.492752	0.001181	11.813392	4.002485	-0.094662
 798	3.9850e-01	8.1591	1.347117	0.000363	3.634890	1.231534	-0.029127
 799	3.9900e-01	8.0821	0.946623	0.001000	9.995947	3.386718	-0.080099
 800	3.9950e-01	8.0565	1.601977	-0.001636	-16.357004	-5.541903	0.131071
 801	4.0000e-01	8.0035	1.310709	0.000727	7.269780	2.463068	-0.058254
 802	4.0050e-01	7.9811	1.201483	0.000273	2.726167	0.923650	-0.021845
 803	4.0100e-01	7.9634	0.728172	0.001181	11.813392	4.002485	-0.094662
 804	4.0150e-01	7.9041	0.800989	-0.000182	-1.817445	-0.615767	0.014563
 805	4.0200e-01	7.8736	0.509720	0.000727	7.269780	2.463068	-0.058254
 806	4.0250e-01	7.8254	0.546129	-0.000091	-0.908722	-0.307883	0.007282
 807	4.0300e-01	7.7966	0.000000	0.001363	13.630837	4.618252	-0.109226
 808	4.0350e-01	7.7260	-0.072817	0.000182	1.817445	0.615767	-0.014563
 809	4.0400e-01	7.6939	0.254860	-0.000818	-8.178502	-2.770951	0.065535
 810	4.0450e-01	7.6586	-0.072817	0.000818	8.178502	2.770951	-0.065535
 811	4.0500e-01	7.6233	0.072817	-0.000363	-3.634890	-1.231534	0.029127
 812	4.0550e-01	7.5800	-0.327677	0.001000	9.995947	3.386718	-0.080099
 813	4.0600e-01	7.5255	-0.691763	0.000909	9.087224	3.078835	-0.072817
 814	4.0650e-01	7.5206	-0.618946	-0.000182	-1.817445	-0.615767	0.014563
 815	4.0700e-01	7.4629	-0.946623	0.000818	8.178502	2.770951	-0.065535
 816	4.0750e-01	7.4276	-0.946623	-0.000000	-0.000000	-0.000000	0.000000
 817	4.0800e-01	7.3763	-1.019440	0.000182	1.817445	0.615767	-0.014563
 818	4.0850e-01	7.3410	-1.092257	0.000182	1.817445	0.615767	-0.014563
 819	4.0900e-01	7.2961	-0.983032	-0.000273	-2.726167	-0.923650	0.021845
 820	4.0950e-01	7.2447	-1.456343	0.001181	11.813392	4.002485	-0.094662
 821	4.1000e-01	7.2207	-1.601977	0.000363	3.634890	1.231534	-0.029127
 822	4.1050e-01	7.1725	-1.601977	-0.000000	-0.000000	-0.000000	0.000000
 823	4.1100e-01	7.1292	-1.784020	0.000454	4.543612	1.539417	-0.036409
 824	4.1150e-01	7.0955	-1.711203	-0.000182	-1.817445	-0.615767	0.014563
 825	4.1200e-01	7.0618	-2.111697	0.001000	9.995947	3.386718	-0.080099
 826	4.1250e-01	7.0297	-2.366558	0.000636	6.361057	2.155184	-0.050972
 827	4.1300e-01	7.0041	-2.366558	-0.000000	-0.000000	-0.000000	0.000000
 828	4.1350e-01	6.9463	-2.220923	-0.000363	-3.634890	-1.231534	0.029127
 829	4.1400e-01	6.9126	-2.657826	0.001090	10.904669	3.694602	-0.087381
 830	4.1450e-01	6.8581	-2.366558	-0.000727	-7.269780	-2.463068	0.058254
 831	4.1500e-01	6.8292	-3.058320	0.001727	17.265726	5.849786	-0.138353
 832	4.1550e-01	6.7811	-3.094729	0.000091	0.908722	0.307883	-0.007282
 833	4.1600e-01	6.7217	-3.203955	0.000273	2.726167	0.923650	-0.021845
 834	4.1650e-01	6.6977	-3.531632	0.000818	8.178502	2.770951	-0.065535
 835	4.1700e-01	6.6656	-3.313181	-0.000545	-5.452335	-1.847301	0.043690
 836	4.1750e-01	6.6030	-3.349589	0.000091	0.908722	0.307883	-0.007282
 837	4.1800e-01	6.5998	-3.568041	0.000545	5.452335	1.847301	-0.043690
 838	4.1850e-01	6.5453	-3.968535	0.001000	9.995947	3.386718	-0.080099
 839	4.1900e-01	6.5068	-4.405438	0.001090	10.904669	3.694602	-0.087381
 840	4.1950e-01	6.4747	-4.441846	0.000091	0.908722	0.307883	-0.007282
 841	4.2000e-01	6.4378	-4.186986	-0.000636	-6.361057	-2.155184	0.050972
 842	4.2050e-01	6.4089	-4.733115	0.001363	13.630837	4.618252	-0.109226
 843	4.2100e-01	6.3399	-4.623889	-0.000273	-2.726167	-0.923650	0.021845
 844	4.2150e-01	6.2982	-5.060792	0.001090	10.904669	3.694602	-0.087381
 845	4.2200e-01	6.2485	-4.915158	-0.000363	-3.634890	-1.231534	0.029127
 846	4.2250e-01	6.2180	-4.805932	-0.000273	-2.726167	-0.923650	0.021845
 847	4.2300e-01	6.1875	-5.242835	0.001090	10.904669	3.694602	-0.087381
 848	4.2350e-01	6.1506	-5.279244	0.000091	0.908722	0.307883	-0.007282
 849	4.2400e-01	6.1105	-5.788964	0.001272	12.722114	4.310369	-0.101944
 850	4.2450e-01	6.0784	-5.461287	-0.000818	-8.178502	-2.770951	0.065535
 851	4.2500e-01	6.0287	-5.788964	0.000818	8.178502	2.770951	-0.065535
 852	4.2550e-01	6.0046	-6.043824	0.000636	6.361057	2.155184	-0.050972
 853	4.2600e-01	5.9677	-5.861781	-0.000454	-4.543612	-1.539417	0.036409
 854	4.2650e-01	5.9004	-6.007415	0.000363	3.634890	1.231534	-0.029127
 855	4.2700e-01	5.8683	-6.225867	0.000545	5.452335	1.847301	-0.043690
 856	4.2750e-01	5.8426	-6.371501	0.000363	3.634890	1.231534	-0.029127
 857	4.2800e-01	5.8153	-6.771995	0.001000	9.995947	3.386718	-0.080099
 858	4.2850e-01	5.7801	-6.699178	-0.000182	-1.817445	-0.615767	0.014563
 859	4.2900e-01	5.7399	-6.917630	0.000545	5.452335	1.847301	-0.043690
 860	4.2950e-01	5.6774	-7.172490	0.000636	6.361057	2.155184	-0.050972
 861	4.3000e-01	5.6148	-7.099673	-0.000182	-1.817445	-0.615767	0.014563
 862	4.3050e-01	5.5956	-7.354533	0.000636	6.361057	2.155184	-0.050972
 863	4.3100e-01	5.5779	-7.572984	0.000545	5.452335	1.847301	-0.043690
 864	4.3150e-01	5.5137	-7.718618	0.000363	3.634890	1.231534	-0.029127
 865	4.3200e-01	5.4351	-7.645801	-0.000182	-1.817445	-0.615767	0.014563
 866	4.3250e-01	5.4143	-7.281715	-0.000909	-9.087224	-3.078835	0.072817
 867	4.3300e-01	5.3662	-7.973478	0.001727	17.265726	5.849786	-0.138353
 868	4.3350e-01	5.3597	-8.446790	0.001181	11.813392	4.002485	-0.094662
 869	4.3400e-01	5.2924	-8.082704	-0.000909	-9.087224	-3.078835	0.072817
 870	4.3450e-01	5.2683	-8.556016	0.001181	11.813392	4.002485	-0.094662
 871	4.3500e-01	5.2202	-8.701650	0.000363	3.634890	1.231534	-0.029127
 872	4.3550e-01	5.1961	-8.956510	0.000636	6.361057	2.155184	-0.050972
 873	4.3600e-01	5.1640	-9.247779	0.000727	7.269780	2.463068	-0.058254
 874	4.3650e-01	5.1255	-8.992919	-0.000636	-6.361057	-2.155184	0.050972
 875	4.3700e-01	5.0710	-9.320596	0.000818	8.178502	2.770951	-0.065535
 876	4.3750e-01	5.0309	-9.174961	-0.000363	-3.634890	-1.231534	0.029127
 877	4.3800e-01	4.9763	-9.320596	0.000363	3.634890	1.231534	-0.029127
 878	4.3850e-01	4.9442	-9.721090	0.001000	9.995947	3.386718	-0.080099
 879	4.3900e-01	4.8913	-9.611864	-0.000273	-2.726167	-0.923650	0.021845
 880	4.3950e-01	4.8849	-10.012359	0.001000	9.995947	3.386718	-0.080099
 881	4.4000e-01	4.8432	-10.376444	0.000909	9.087224	3.078835	-0.072817
 882	4.4050e-01	4.7501	-10.303627	-0.000182	-1.817445	-0.615767	0.014563
 883	4.4100e-01	4.7261	-10.194402	-0.000273	-2.726167	-0.923650	0.021845
 884	4.4150e-01	4.7084	-10.776939	0.001454	14.539559	4.926136	-0.116507
 885	4.4200e-01	4.6571	-10.740530	-0.000091	-0.908722	-0.307883	0.007282
 886	4.4250e-01	4.6154	-10.412853	-0.000818	-8.178502	-2.770951	0.065535
 887	4.4300e-01	4.5833	-11.031799	0.001545	15.448282	5.234019	-0.123789
 888	4.4350e-01	4.5416	-10.886165	-0.000363	-3.634890	-1.231534	0.029127
 889	4.4400e-01	4.5095	-11.323067	0.001090	10.904669	3.694602	-0.087381
 890	4.4450e-01	4.4710	-11.395885	0.000182	1.817445	0.615767	-0.014563
 891	4.4500e-01	4.4373	-11.286659	-0.000273	-2.726167	-0.923650	0.021845
 892	4.4550e-01	4.3844	-11.978422	0.001727	17.265726	5.849786	-0.138353
 893	4.4600e-01	4.3491	-11.978422	-0.000000	-0.000000	-0.000000	0.000000
 894	4.4650e-01	4.3090	-12.087648	0.000273	2.726167	0.923650	-0.021845
 895	4.4700e-01	4.2544	-12.160465	0.000182	1.817445	0.615767	-0.014563
 896	4.4750e-01	4.2512	-12.342508	0.000454	4.543612	1.539417	-0.036409
 897	4.4800e-01	4.2015	-12.488142	0.000363	3.634890	1.231534	-0.029127
 898	4.4850e-01	4.1614	-12.306099	-0.000454	-4.543612	-1.539417	0.036409
 899	4.4900e-01	4.0956	-12.451733	0.000363	3.634890	1.231534	-0.029127
 900	4.4950e-01	4.0860	-12.997862	0.001363	13.630837	4.618252	-0.109226
 901	4.5000e-01	4.0555	-13.107088	0.000273	2.726167	0.923650	-0.021845
 902	4.5050e-01	4.0042	-13.543991	0.001090	10.904669	3.694602	-0.087381
 903	4.5100e-01	3.9480	-13.179905	-0.000909	-9.087224	-3.078835	0.072817
 904	4.5150e-01	3.9079	-13.944485	0.001908	19.083171	6.465553	-0.152916
 905	4.5200e-01	3.8277	-13.616808	-0.000818	-8.178502	-2.770951	0.065535
 906	4.5250e-01	3.8149	-13.908076	0.000727	7.269780	2.463068	-0.058254
 907	4.5300e-01	3.7812	-14.272162	0.000909	9.087224	3.078835	-0.072817
 908	4.5350e-01	3.7282	-14.272162	-0.000000	-0.000000	-0.000000	0.000000
 909	4.5400e-01	3.6785	-13.871668	-0.001000	-9.995947	-3.386718	0.080099
 910	4.5450e-01	3.6593	-14.781882	0.002272	22.718061	7.697087	-0.182043
 911	4.5500e-01	3.6015	-14.563431	-0.000545	-5.452335	-1.847301	0.043690
 912	4.5550e-01	3.5919	-14.563431	-0.000000	-0.000000	-0.000000	0.000000
 913	4.5600e-01	3.5566	-15.255194	0.001727	17.265726	5.849786	-0.138353
 914	4.5650e-01	3.5261	-14.891108	-0.000909	-9.087224	-3.078835	0.072817
 915	4.5700e-01	3.4828	-15.291602	0.001000	9.995947	3.386718	-0.080099
 916	4.5750e-01	3.4475	-15.255194	-0.000091	-0.908722	-0.307883	0.007282
 917	4.5800e-01	3.3785	-15.692097	0.001090	10.904669	3.694602	-0.087381
 918	4.5850e-01	3.3256	-15.728505	0.000091	0.908722	0.307883	-0.007282
 919	4.5900e-01	3.3176	-15.801322	0.000182	1.817445	0.615767	-0.014563
 920	4.5950e-01	3.2710	-15.837731	0.000091	0.908722	0.307883	-0.007282
 921	4.6000e-01	3.2325	-16.820763	0.002454	24.535506	8.312854	-0.196606
 922	4.6050e-01	3.1908	-16.565903	-0.000636	-6.361057	-2.155184	0.050972
 923	4.6100e-01	3.1507	-16.311042	-0.000636	-6.361057	-2.155184	0.050972
 924	4.6150e-01	3.1106	-16.711537	0.001000	9.995947	3.386718	-0.080099
 925	4.6200e-01	3.0881	-17.221257	0.001272	12.722114	4.310369	-0.101944
 926	4.6250e-01	3.0480	-16.820763	-0.001000	-9.995947	-3.386718	0.080099
 927	4.6300e-01	2.9983	-17.403300	0.001454	14.539559	4.926136	-0.116507
 928	4.6350e-01	2.9646	-17.439708	0.000091	0.908722	0.307883	-0.007282
 929	4.6400e-01	2.8956	-17.221257	-0.000545	-5.452335	-1.847301	0.043690
 930	4.6450e-01	2.8539	-17.366891	0.000363	3.634890	1.231534	-0.029127
 931	4.6500e-01	2.8379	-17.985837	0.001545	15.448282	5.234019	-0.123789
 932	4.6550e-01	2.7898	-18.131471	0.000363	3.634890	1.231534	-0.029127
 933	4.6600e-01	2.7448	-18.131471	-0.000000	-0.000000	-0.000000	0.000000
 934	4.6650e-01	2.7272	-18.641191	0.001272	12.722114	4.310369	-0.101944
 935	4.6700e-01	2.6582	-18.459149	-0.000454	-4.543612	-1.539417	0.036409
 936	4.6750e-01	2.6117	-18.823234	0.000909	9.087224	3.078835	-0.072817
 937	4.6800e-01	2.5748	-18.932460	0.000273	2.726167	0.923650	-0.021845
 938	4.6850e-01	2.5347	-19.078094	0.000363	3.634890	1.231534	-0.029127
 939	4.6900e-01	2.5090	-19.005277	-0.000182	-1.817445	-0.615767	0.014563
 940	4.6950e-01	2.4753	-19.332954	0.000818	8.178502	2.770951	-0.065535
 941	4.7000e-01	2.4031	-19.660632	0.000818	8.178502	2.770951	-0.065535
 942	4.7050e-01	2.3855	-19.842674	0.000454	4.543612	1.539417	-0.036409
 943	4.7100e-01	2.3342	-19.842674	-0.000000	-0.000000	-0.000000	0.000000
 944	4.7150e-01	2.2860	-19.915492	0.000182	1.817445	0.615767	-0.014563
 945	4.7200e-01	2.2620	-20.243169	0.000818	8.178502	2.770951	-0.065535
 946	4.7250e-01	2.2363	-20.097534	-0.000363	-3.634890	-1.231534	0.029127
 947	4.7300e-01	2.1866	-20.643663	0.001363	13.630837	4.618252	-0.109226
 948	4.7350e-01	2.1176	-20.716480	0.000182	1.817445	0.615767	-0.014563
 949	4.7400e-01	2.0566	-20.607255	-0.000273	-2.726167	-0.923650	0.021845
 950	4.7450e-01	2.0614	-20.461620	0.000363	3.634890	1.231534	0.029127
 951	4.7500e-01	2.0534	-21.262609	0.001999	19.991894	6.773437	-0.160198
 952	4.7550e-01	1.9876	-21.226200	-0.000091	-0.908722	-0.307883	0.007282
 953	4.7600e-01	1.9700	-21.735920	0.001272	12.722114	4.310369	-0.101944
 954	4.7650e-01	1.9171	-21.663103	-0.000182	-1.817445	-0.615767	0.014563
 955	4.7700e-01	1.8673	-21.808738	0.000363	3.634890	1.231534	-0.029127
 956	4.7750e-01	1.8128	-21.699512	-0.000273	-2.726167	-0.923650	0.021845
 957	4.7800e-01	1.7983	-22.063598	0.000909	9.087224	3.078835	-0.072817
 958	4.7850e-01	1.7582	-21.990780	-0.000182	-1.817445	-0.615767	0.014563
 959	4.7900e-01	1.7326	-22.245641	0.000636	6.361057	2.155184	-0.050972
 960	4.7950e-01	1.6427	-22.318458	0.000182	1.817445	0.615767	-0.014563
 961	4.8000e-01	1.6315	-22.682543	0.000909	9.087224	3.078835	-0.072817
 962	4.8050e-01	1.5721	-23.155855	0.001181	11.813392	4.002485	-0.094662
 963	4.8100e-01	1.5497	-23.410715	0.000636	6.361057	2.155184	-0.050972
 964	4.8150e-01	1.5064	-23.301489	-0.000273	-2.726167	-0.923650	0.021845
 965	4.8200e-01	1.4695	-23.447124	0.000363	3.634890	1.231534	-0.029127
 966	4.8250e-01	1.4101	-23.556349	0.000273	2.726167	0.923650	-0.021845
 967	4.8300e-01	1.3861	-24.284521	0.001817	18.174449	6.157670	-0.145634
 968	4.8350e-01	1.3540	-24.138887	-0.000363	-3.634890	-1.231534	0.029127
 969	4.8400e-01	1.3219	-24.430155	0.000727	7.269780	2.463068	-0.058254
 970	4.8450e-01	1.2625	-24.502972	0.000182	1.817445	0.615767	-0.014563
 971	4.8500e-01	1.2128	-24.211704	-0.000727	-7.269780	-2.463068	0.058254
 972	4.8550e-01	1.1791	-24.539381	0.000818	8.178502	2.770951	-0.065535
 973	4.8600e-01	1.1486	-24.721424	0.000454	4.543612	1.539417	-0.036409
 974	4.8650e-01	1.1294	-24.976284	0.000636	6.361057	2.155184	-0.050972
 975	4.8700e-01	1.0813	-25.486004	0.001272	12.722114	4.310369	-0.101944
 976	4.8750e-01	1.0315	-25.267552	-0.000545	-5.452335	-1.847301	0.043690
 977	4.8800e-01	0.9882	-25.413187	0.000363	3.634890	1.231534	-0.029127
 978	4.8850e-01	0.9497	-25.522412	0.000273	2.726167	0.923650	-0.021845
 979	4.8900e-01	0.8984	-25.813681	0.000727	7.269780	2.463068	-0.058254
 980	4.8950e-01	0.8711	-26.214175	0.001000	9.995947	3.386718	-0.080099
 981	4.9000e-01	0.8246	-26.687487	0.001181	11.813392	4.002485	-0.094662
 982	4.9050e-01	0.8005	-26.505444	-0.000454	-4.543612	-1.539417	0.036409
 983	4.9100e-01	0.7620	-26.796713	0.000727	7.269780	2.463068	-0.058254
 984	4.9150e-01	0.7267	-26.723895	-0.000182	-1.817445	-0.615767	0.014563
 985	4.9200e-01	0.7091	-27.015164	0.000727	7.269780	2.463068	-0.058254
 986	4.9250e-01	0.6305	-27.452067	0.001090	10.904669	3.694602	-0.087381
 987	4.9300e-01	0.5968	-27.306433	-0.000363	-3.634890	-1.231534	0.029127
 988	4.9350e-01	0.5262	-27.524884	0.000545	5.452335	1.847301	-0.043690
 989	4.9400e-01	0.4957	-27.597701	0.000182	1.817445	0.615767	-0.014563
 990	4.9450e-01	0.4716	-28.143830	0.001363	13.630837	4.618252	-0.109226
 991	4.9500e-01	0.4315	-28.034604	-0.000273	-2.726167	-0.923650	0.021845
 992	4.9550e-01	0.3850	-28.398690	0.000909	9.087224	3.078835	-0.072817
 993	4.9600e-01	0.3529	-28.325873	-0.000182	-1.817445	-0.615767	0.014563
 994	4.9650e-01	0.3401	-28.726367	0.001000	9.995947	3.386718	-0.080099
 995	4.9700e-01	0.2647	-28.835593	0.000273	2.726167	0.923650	-0.021845
 996	4.9750e-01	0.2262	-28.944819	0.000273	2.726167	0.923650	-0.021845
 997	4.9800e-01	0.1909	-29.490947	0.001363	13.630837	4.618252	-0.109226
 998	4.9850e-01	0.1396	-29.454539	-0.000091	-0.908722	-0.307883	0.007282
 999	4.9900e-01	0.1187	-29.782216	0.000818	8.178502	2.770951	-0.065535
1000	4.9950e-01	0.0674	-29.672990	-0.000273	-2.726167	-0.923650	0.021845
1001	5.0000e-01	0.0786	-30.037076	-0.000273	-2.726167	-0.923650	-0.072817

PMax (uC/cm2):	6.78e+01
Pr (uC/cm2):	3.82e+00
-Pr (uC/cm2):	0.00e+00
PLoss (uC/cm2):	0.00e+00
C (Max-Eff) (nF):	3.38e-01
K (Eff):	1.15e+03
Vert. (+/-Pr) Shift (uC/cm2):	1.91e+00
Offset (uC/cm2):	3.39e+01

A (Loop Area - uC/cm2·Volts):	-9.68e-02



Hysteresis Version: 5.48.1 - Radiant Technologies, Inc., 1999 - 9/12/24

