»»»»»»»»»»»»»»»»»»»»»»»»»»»»»»»»»»»» Hysteresis ««««««««««««««««««««««««««««««««««««
»»»  Executed Version:	5.48.1
»»»  Vision Version:	5.48.4 (R)
»»»  Vision Compiled:	9/18/24
»»»  Driver Version:	5.47.0
»»»  Windows Version:	Windows 8 or 8.1
»»»  Processor Information:	x86 (AMD or Intel) - 32 Processors
»»»  Tester Name:	PMF21124-494 (100V)
»»»  Tester S/N:	PMF21124-494
»»»  Internal Amp Type:	100V RevK 270k
»»»  Internal Amp S/N:	iAB2-596/K     
»»»  Execution Count:	1
»»»»»»»»»»»»»»»»»»»»»»»»»»»»»»»»»»»»»»»»»»««««««««««««««««««««««««««««««««««««««««««

Stored:	10/10/2025 - 15:14:25
Configured:	10/10/25 10:37:25 AM
Executed:	10/10/25 03:14:01 PM

»»»»»»»»»»»»»»»»»»»»»»»»»»»»»»»»»»» Sample Info ««««««««««««««««««««««««««««««««««««
Sample Name:	Int. Ref. Ferroelectric
Lot Name:	N/A
Wafer Name:	N/A
Die Row/Column:	0/0
Capacitor Number:	0
Sample Area (cm2):	1.00e-04
Sample Thickness (microns):	3.00e-01

Amplifier:	Internal

»»»»»»»»»»»»»»»»»»»»»»»»»»»»»»»»»»» Tester Info «««««««««««««««««««««««««««««««««««
Tester Name:	PMF21124-494 (100V)
Tester Serial Number:	PMF21124-494
Return Signal Amp. Level:	0.02 [Index: 2]

»»»»»»»»»»»»»»»»»»»»»»»»»»»»»»»» Hysteresis Info ««««««««««««««««««««««««««««««««««
Task Name:	Hyst-170
Volts:	20.00
Field:	666.67 (kV/cm)
DCBias:	0.00
DCField:	0.00 (kV/cm)
Hysteresis Period (ms):	5.00e-01
Preset:	Enabled
Preset Delay (ms):	1.00e+03
Profile:	Standard Monopolar

»»»»»»»»»»»»»»»»»»»»»»»»»»»»»»»»»»»»»» Data «««««««««««««««««««««««««««««««««««««««
Points:	1001

Valid Data

Point	Time (ms)	Drive Voltage	Measured Polarization (uC/cm2)	Capacitance (uF)	Normalized Capacitance (uF/cm2)	Dielectric Constant	Instantaneous Current (mA)
   1	0.0000e+00	0.0449	-34.460718	-0.002817	-28.169267	-9.544006	0.225733
   2	5.0000e-04	0.0257	-33.332052	-0.002817	-28.169267	-9.544006	0.225733
   3	1.0000e-03	0.1059	-33.659729	-0.000818	-8.178174	-2.770840	-0.065535
   4	1.5000e-03	0.1524	-33.368461	0.000727	7.269488	2.462969	0.058254
   5	2.0000e-03	0.1941	-33.659729	-0.000727	-7.269488	-2.462969	-0.058254
   6	2.5000e-03	0.2326	-32.713106	0.002363	23.625837	8.004650	0.189325
   7	3.0000e-03	0.2904	-33.150009	-0.001090	-10.904232	-3.694454	-0.087381
   8	3.5000e-03	0.3112	-32.967966	0.000454	4.543430	1.539356	0.036409
   9	4.0000e-03	0.3593	-32.822332	0.000363	3.634744	1.231485	0.029127
  10	4.5000e-03	0.3914	-32.640289	0.000454	4.543430	1.539356	0.036409
  11	5.0000e-03	0.4283	-32.603881	0.000091	0.908686	0.307871	0.007282
  12	5.5000e-03	0.4845	-32.421838	0.000454	4.543430	1.539356	0.036409
  13	6.0000e-03	0.5246	-31.948526	0.001181	11.812918	4.002325	0.094662
  14	6.5000e-03	0.5486	-31.802892	0.000363	3.634744	1.231485	0.029127
  15	7.0000e-03	0.5968	-31.693666	0.000273	2.726058	0.923613	0.021845
  16	7.5000e-03	0.6369	-31.220355	0.001181	11.812918	4.002325	0.094662
  17	8.0000e-03	0.6674	-31.147538	0.000182	1.817372	0.615742	0.014563
  18	8.5000e-03	0.7315	-31.183946	-0.000091	-0.908686	-0.307871	-0.007282
  19	9.0000e-03	0.7460	-30.419366	0.001908	19.082407	6.465294	0.152916
  20	9.5000e-03	0.7861	-31.111129	-0.001727	-17.265034	-5.849552	-0.138353
  21	1.0000e-02	0.8278	-30.492183	0.001545	15.447662	5.233810	0.123789
  22	1.0500e-02	0.8679	-30.128097	0.000909	9.086860	3.078712	0.072817
  23	1.1000e-02	0.9401	-30.237323	-0.000273	-2.726058	-0.923613	-0.021845
  24	1.1500e-02	0.9706	-30.346549	-0.000273	-2.726058	-0.923613	-0.021845
  25	1.2000e-02	0.9802	-29.982463	0.000909	9.086860	3.078712	0.072817
  26	1.2500e-02	1.0219	-29.509152	0.001181	11.812918	4.002325	0.094662
  27	1.3000e-02	1.0780	-29.509152	0.000000	0.000000	0.000000	0.000000
  28	1.3500e-02	1.1133	-29.108657	0.001000	9.995546	3.386583	0.080099
  29	1.4000e-02	1.1615	-29.181474	-0.000182	-1.817372	-0.615742	-0.014563
  30	1.4500e-02	1.1919	-28.780980	0.001000	9.995546	3.386583	0.080099
  31	1.5000e-02	1.2064	-28.926614	-0.000363	-3.634744	-1.231485	-0.029127
  32	1.5500e-02	1.2417	-28.344077	0.001454	14.538976	4.925939	0.116507
  33	1.6000e-02	1.2834	-28.489711	-0.000363	-3.634744	-1.231485	-0.029127
  34	1.6500e-02	1.3492	-28.089217	0.001000	9.995546	3.386583	0.080099
  35	1.7000e-02	1.3732	-27.870766	0.000545	5.452116	1.847227	0.043690
  36	1.7500e-02	1.4342	-27.907174	-0.000091	-0.908686	-0.307871	-0.007282
  37	1.8000e-02	1.4903	-27.943583	-0.000091	-0.908686	-0.307871	-0.007282
  38	1.8500e-02	1.5096	-27.543088	0.001000	9.995546	3.386583	0.080099
  39	1.9000e-02	1.5449	-27.361046	0.000454	4.543430	1.539356	0.036409
  40	1.9500e-02	1.5754	-26.851326	0.001272	12.721604	4.310196	0.101944
  41	2.0000e-02	1.6347	-27.033368	-0.000454	-4.543430	-1.539356	-0.036409
  42	2.0500e-02	1.6636	-26.669283	0.000909	9.086860	3.078712	0.072817
  43	2.1000e-02	1.7310	-26.560057	0.000273	2.726058	0.923613	0.021845
  44	2.1500e-02	1.7406	-26.305197	0.000636	6.360802	2.155098	0.050972
  45	2.2000e-02	1.7759	-26.814917	-0.001272	-12.721604	-4.310196	-0.101944
  46	2.2500e-02	1.8272	-26.195971	0.001545	15.447662	5.233810	0.123789
  47	2.3000e-02	1.8786	-26.086745	0.000273	2.726058	0.923613	0.021845
  48	2.3500e-02	1.9187	-25.831885	0.000636	6.360802	2.155098	0.050972
  49	2.4000e-02	1.9668	-25.795477	0.000091	0.908686	0.307871	0.007282
  50	2.4500e-02	1.9844	-25.577025	0.000545	5.452116	1.847227	0.043690
  51	2.5000e-02	2.0406	-24.994488	0.001454	14.538976	4.925939	0.116507
  52	2.5500e-02	2.0887	-25.358574	-0.000909	-9.086860	-3.078712	-0.072817
  53	2.6000e-02	2.0951	-24.666811	0.001727	17.265034	5.849552	0.138353
  54	2.6500e-02	2.1721	-24.703219	-0.000091	-0.908686	-0.307871	-0.007282
  55	2.7000e-02	2.1785	-24.703219	0.000000	0.000000	0.000000	0.000000
  56	2.7500e-02	2.2588	-24.630402	0.000182	1.817372	0.615742	0.014563
  57	2.8000e-02	2.2700	-24.411951	0.000545	5.452116	1.847227	0.043690
  58	2.8500e-02	2.3101	-24.011457	0.001000	9.995546	3.386583	0.080099
  59	2.9000e-02	2.3486	-23.865822	0.000363	3.634744	1.231485	0.029127
  60	2.9500e-02	2.4063	-24.157091	-0.000727	-7.269488	-2.462969	-0.058254
  61	3.0000e-02	2.4384	-23.501736	0.001636	16.356348	5.541681	0.131071
  62	3.0500e-02	2.4753	-23.246876	0.000636	6.360802	2.155098	0.050972
  63	3.1000e-02	2.5395	-23.246876	0.000000	0.000000	0.000000	0.000000
  64	3.1500e-02	2.5652	-23.356102	-0.000273	-2.726058	-0.923613	-0.021845
  65	3.2000e-02	2.6053	-22.773565	0.001454	14.538976	4.925939	0.116507
  66	3.2500e-02	2.6518	-22.992016	-0.000545	-5.452116	-1.847227	-0.043690
  67	3.3000e-02	2.6823	-22.737156	0.000636	6.360802	2.155098	0.050972
  68	3.3500e-02	2.7015	-22.227436	0.001272	12.721604	4.310196	0.101944
  69	3.4000e-02	2.7384	-22.154619	0.000182	1.817372	0.615742	0.014563
  70	3.4500e-02	2.7946	-22.263845	-0.000273	-2.726058	-0.923613	-0.021845
  71	3.5000e-02	2.8347	-22.118211	0.000363	3.634744	1.231485	0.029127
  72	3.5500e-02	2.8652	-21.207996	0.002272	22.717151	7.696779	0.182043
  73	3.6000e-02	2.9261	-21.826942	-0.001545	-15.447662	-5.233810	-0.123789
  74	3.6500e-02	2.9518	-21.207996	0.001545	15.447662	5.233810	0.123789
  75	3.7000e-02	3.0031	-21.280813	-0.000182	-1.817372	-0.615742	-0.014563
  76	3.7500e-02	3.0368	-20.989545	0.000727	7.269488	2.462969	0.058254
  77	3.8000e-02	3.0930	-21.280813	-0.000727	-7.269488	-2.462969	-0.058254
  78	3.8500e-02	3.1010	-20.734685	0.001363	13.630290	4.618067	0.109226
  79	3.9000e-02	3.1363	-20.698276	0.000091	0.908686	0.307871	0.007282
  80	3.9500e-02	3.1748	-20.297782	0.001000	9.995546	3.386583	0.080099
  81	4.0000e-02	3.2406	-20.224965	0.000182	1.817372	0.615742	0.014563
  82	4.0500e-02	3.2534	-20.115739	0.000273	2.726058	0.923613	0.021845
  83	4.1000e-02	3.3192	-19.970104	0.000363	3.634744	1.231485	0.029127
  84	4.1500e-02	3.3545	-19.788062	0.000454	4.543430	1.539356	0.036409
  85	4.2000e-02	3.3946	-19.678836	0.000273	2.726058	0.923613	0.021845
  86	4.2500e-02	3.4315	-19.423976	0.000636	6.360802	2.155098	0.050972
  87	4.3000e-02	3.4555	-19.678836	-0.000636	-6.360802	-2.155098	-0.050972
  88	4.3500e-02	3.5036	-18.987073	0.001727	17.265034	5.849552	0.138353
  89	4.4000e-02	3.5582	-18.732213	0.000636	6.360802	2.155098	0.050972
  90	4.4500e-02	3.6015	-18.914256	-0.000454	-4.543430	-1.539356	-0.036409
  91	4.5000e-02	3.6641	-18.732213	0.000454	4.543430	1.539356	0.036409
  92	4.5500e-02	3.6881	-18.732213	0.000000	0.000000	0.000000	0.000000
  93	4.6000e-02	3.7395	-18.149676	0.001454	14.538976	4.925939	0.116507
  94	4.6500e-02	3.7683	-18.004041	0.000363	3.634744	1.231485	0.029127
  95	4.7000e-02	3.7924	-18.149676	-0.000363	-3.634744	-1.231485	-0.029127
  96	4.7500e-02	3.8405	-17.785590	0.000909	9.086860	3.078712	0.072817
  97	4.8000e-02	3.8951	-17.931224	-0.000363	-3.634744	-1.231485	-0.029127
  98	4.8500e-02	3.9223	-17.457913	0.001181	11.812918	4.002325	0.094662
  99	4.9000e-02	3.9576	-17.275870	0.000454	4.543430	1.539356	0.036409
 100	4.9500e-02	4.0026	-16.911784	0.000909	9.086860	3.078712	0.072817
 101	5.0000e-02	4.0411	-16.656924	0.000636	6.360802	2.155098	0.050972
 102	5.0500e-02	4.0667	-16.948193	-0.000727	-7.269488	-2.462969	-0.058254
 103	5.1000e-02	4.0940	-16.656924	0.000727	7.269488	2.462969	0.058254
 104	5.1500e-02	4.1502	-16.074387	0.001454	14.538976	4.925939	0.116507
 105	5.2000e-02	4.1983	-16.656924	-0.001454	-14.538976	-4.925939	-0.116507
 106	5.2500e-02	4.2448	-16.620515	0.000091	0.908686	0.307871	0.007282
 107	5.3000e-02	4.2833	-16.402064	0.000545	5.452116	1.847227	0.043690
 108	5.3500e-02	4.3234	-16.037978	0.000909	9.086860	3.078712	0.072817
 109	5.4000e-02	4.3699	-15.710301	0.000818	8.178174	2.770840	0.065535
 110	5.4500e-02	4.3699	-15.673892	-0.000091	-0.908686	-0.307871	0.007282
 111	5.5000e-02	4.4229	-15.346215	0.000818	8.178174	2.770840	0.065535
 112	5.5500e-02	4.4566	-15.528258	-0.000454	-4.543430	-1.539356	-0.036409
 113	5.6000e-02	4.5047	-15.419032	0.000273	2.726058	0.923613	0.021845
 114	5.6500e-02	4.5368	-14.618044	0.001999	19.991093	6.773166	0.160198
 115	5.7000e-02	4.5897	-14.545226	0.000182	1.817372	0.615742	0.014563
 116	5.7500e-02	4.6138	-14.800087	-0.000636	-6.360802	-2.155098	-0.050972
 117	5.8000e-02	4.6683	-14.253958	0.001363	13.630290	4.618067	0.109226
 118	5.8500e-02	4.7293	-14.399592	-0.000363	-3.634744	-1.231485	-0.029127
 119	5.9000e-02	4.7566	-14.181141	0.000545	5.452116	1.847227	0.043690
 120	5.9500e-02	4.7983	-13.999098	0.000454	4.543430	1.539356	0.036409
 121	6.0000e-02	4.8352	-13.999098	0.000000	0.000000	0.000000	0.000000
 122	6.0500e-02	4.8833	-13.999098	0.000000	0.000000	0.000000	0.000000
 123	6.1000e-02	4.9458	-13.598603	0.001000	9.995546	3.386583	0.080099
 124	6.1500e-02	4.9827	-13.489378	0.000273	2.726058	0.923613	0.021845
 125	6.2000e-02	5.0068	-12.943249	0.001363	13.630290	4.618067	0.109226
 126	6.2500e-02	5.0485	-13.234518	-0.000727	-7.269488	-2.462969	-0.058254
 127	6.3000e-02	5.0533	-13.198109	0.000091	0.908686	0.307871	0.007282
 128	6.3500e-02	5.1271	-12.542755	0.001636	16.356348	5.541681	0.131071
 129	6.4000e-02	5.1672	-12.651980	-0.000273	-2.726058	-0.923613	-0.021845
 130	6.4500e-02	5.2122	-12.433529	0.000545	5.452116	1.847227	0.043690
 131	6.5000e-02	5.2410	-12.215078	0.000545	5.452116	1.847227	0.043690
 132	6.5500e-02	5.2635	-12.142260	0.000182	1.817372	0.615742	0.014563
 133	6.6000e-02	5.3212	-12.178669	-0.000091	-0.908686	-0.307871	-0.007282
 134	6.6500e-02	5.3678	-11.996626	0.000454	4.543430	1.539356	0.036409
 135	6.7000e-02	5.3982	-11.559723	0.001090	10.904232	3.694454	0.087381
 136	6.7500e-02	5.4383	-11.596132	-0.000091	-0.908686	-0.307871	-0.007282
 137	6.8000e-02	5.4801	-11.232046	0.000909	9.086860	3.078712	0.072817
 138	6.8500e-02	5.5250	-11.050003	0.000454	4.543430	1.539356	0.036409
 139	6.9000e-02	5.5410	-10.904369	0.000363	3.634744	1.231485	0.029127
 140	6.9500e-02	5.5891	-10.758734	0.000363	3.634744	1.231485	0.029127
 141	7.0000e-02	5.6260	-10.576692	0.000454	4.543430	1.539356	0.036409
 142	7.0500e-02	5.6774	-10.685917	-0.000273	-2.726058	-0.923613	-0.021845
 143	7.1000e-02	5.7223	-10.066972	0.001545	15.447662	5.233810	0.123789
 144	7.1500e-02	5.7881	-10.649509	-0.001454	-14.538976	-4.925939	-0.116507
 145	7.2000e-02	5.7897	-9.812111	0.002090	20.899779	7.081037	0.167479
 146	7.2500e-02	5.8346	-9.884929	-0.000182	-1.817372	-0.615742	-0.014563
 147	7.3000e-02	5.8843	-9.812111	0.000182	1.817372	0.615742	0.014563
 148	7.3500e-02	5.9421	-9.812111	0.000000	0.000000	0.000000	0.000000
 149	7.4000e-02	5.9677	-9.520843	0.000727	7.269488	2.462969	0.058254
 150	7.4500e-02	6.0014	-9.193166	0.000818	8.178174	2.770840	0.065535
 151	7.5000e-02	6.0351	-9.338800	-0.000363	-3.634744	-1.231485	-0.029127
 152	7.5500e-02	6.0656	-9.047531	0.000727	7.269488	2.462969	0.058254
 153	7.6000e-02	6.1137	-8.938306	0.000273	2.726058	0.923613	0.021845
 154	7.6500e-02	6.1378	-8.574220	0.000909	9.086860	3.078712	0.072817
 155	7.7000e-02	6.1923	-8.610628	-0.000091	-0.908686	-0.307871	-0.007282
 156	7.7500e-02	6.2453	-8.428586	0.000454	4.543430	1.539356	0.036409
 157	7.8000e-02	6.2822	-8.428586	0.000000	0.000000	0.000000	0.000000
 158	7.8500e-02	6.2966	-7.809640	0.001545	15.447662	5.233810	0.123789
 159	7.9000e-02	6.3704	-7.773231	0.000091	0.908686	0.307871	0.007282
 160	7.9500e-02	6.4073	-7.591188	0.000454	4.543430	1.539356	0.036409
 161	8.0000e-02	6.4474	-7.918865	-0.000818	-8.178174	-2.770840	-0.065535
 162	8.0500e-02	6.4891	-7.518371	0.001000	9.995546	3.386583	0.080099
 163	8.1000e-02	6.5068	-7.190694	0.000818	8.178174	2.770840	0.065535
 164	8.1500e-02	6.5469	-7.481963	-0.000727	-7.269488	-2.462969	-0.058254
 165	8.2000e-02	6.5790	-7.409145	0.000182	1.817372	0.615742	0.014563
 166	8.2500e-02	6.6223	-6.608157	0.001999	19.991093	6.773166	0.160198
 167	8.3000e-02	6.6672	-6.535340	0.000182	1.817372	0.615742	0.014563
 168	8.3500e-02	6.7121	-6.571748	-0.000091	-0.908686	-0.307871	-0.007282
 169	8.4000e-02	6.7426	-6.535340	0.000091	0.908686	0.307871	0.007282
 170	8.4500e-02	6.8196	-6.244071	0.000727	7.269488	2.462969	0.058254
 171	8.5000e-02	6.8244	-5.879985	0.000909	9.086860	3.078712	0.072817
 172	8.5500e-02	6.8790	-6.462522	-0.001454	-14.538976	-4.925939	-0.116507
 173	8.6000e-02	6.9046	-5.552308	0.002272	22.717151	7.696779	0.182043
 174	8.6500e-02	6.9848	-5.734351	-0.000454	-4.543430	-1.539356	-0.036409
 175	8.7000e-02	6.9816	-5.515899	-0.000545	-5.452116	-1.847227	0.043690
 176	8.7500e-02	7.0249	-5.297448	0.000545	5.452116	1.847227	0.043690
 177	8.8000e-02	7.0634	-5.588717	-0.000727	-7.269488	-2.462969	-0.058254
 178	8.8500e-02	7.1100	-5.224631	0.000909	9.086860	3.078712	0.072817
 179	8.9000e-02	7.1661	-4.933362	0.000727	7.269488	2.462969	0.058254
 180	8.9500e-02	7.2062	-5.006179	-0.000182	-1.817372	-0.615742	-0.014563
 181	9.0000e-02	7.2174	-4.642094	0.000909	9.086860	3.078712	0.072817
 182	9.0500e-02	7.2720	-4.605685	0.000091	0.908686	0.307871	0.007282
 183	9.1000e-02	7.2993	-4.205191	0.001000	9.995546	3.386583	0.080099
 184	9.1500e-02	7.3394	-4.241599	-0.000091	-0.908686	-0.307871	-0.007282
 185	9.2000e-02	7.3795	-3.913922	0.000818	8.178174	2.770840	0.065535
 186	9.2500e-02	7.4340	-4.205191	-0.000727	-7.269488	-2.462969	-0.058254
 187	9.3000e-02	7.4837	-3.950331	0.000636	6.360802	2.155098	0.050972
 188	9.3500e-02	7.5190	-3.768288	0.000454	4.543430	1.539356	0.036409
 189	9.4000e-02	7.5784	-3.331385	0.001090	10.904232	3.694454	0.087381
 190	9.4500e-02	7.6153	-3.586245	-0.000636	-6.360802	-2.155098	-0.050972
 191	9.5000e-02	7.6217	-2.894482	0.001727	17.265034	5.849552	0.138353
 192	9.5500e-02	7.6859	-2.930890	-0.000091	-0.908686	-0.307871	-0.007282
 193	9.6000e-02	7.7051	-3.003708	-0.000182	-1.817372	-0.615742	-0.014563
 194	9.6500e-02	7.7597	-2.676030	0.000818	8.178174	2.770840	0.065535
 195	9.7000e-02	7.7805	-2.239127	0.001090	10.904232	3.694454	0.087381
 196	9.7500e-02	7.8287	-2.457579	-0.000545	-5.452116	-1.847227	-0.043690
 197	9.8000e-02	7.8960	-2.493988	-0.000091	-0.908686	-0.307871	-0.007282
 198	9.8500e-02	7.9217	-2.093493	0.001000	9.995546	3.386583	0.080099
 199	9.9000e-02	7.9458	-1.802225	0.000727	7.269488	2.462969	0.058254
 200	9.9500e-02	7.9827	-1.947859	-0.000363	-3.634744	-1.231485	-0.029127
 201	1.0000e-01	8.0228	-1.510956	0.001090	10.904232	3.694454	0.087381
 202	1.0050e-01	8.0918	-1.765816	-0.000636	-6.360802	-2.155098	-0.050972
 203	1.0100e-01	8.1030	-1.510956	0.000636	6.360802	2.155098	0.050972
 204	1.0150e-01	8.1447	-1.401730	0.000273	2.726058	0.923613	0.021845
 205	1.0200e-01	8.1848	-0.964827	0.001090	10.904232	3.694454	0.087381
 206	1.0250e-01	8.2089	-0.855602	0.000273	2.726058	0.923613	0.021845
 207	1.0300e-01	8.2698	-0.892010	-0.000091	-0.908686	-0.307871	-0.007282
 208	1.0350e-01	8.3099	-0.345881	0.001363	13.630290	4.618067	0.109226
 209	1.0400e-01	8.3436	-0.746376	-0.001000	-9.995546	-3.386583	-0.080099
 210	1.0450e-01	8.4030	-0.273064	0.001181	11.812918	4.002325	0.094662
 211	1.0500e-01	8.4415	-0.236656	0.000091	0.908686	0.307871	0.007282
 212	1.0550e-01	8.4703	-0.200247	0.000091	0.908686	0.307871	0.007282
 213	1.0600e-01	8.4992	0.236656	0.001090	10.904232	3.694454	0.087381
 214	1.0650e-01	8.5602	0.309473	0.000182	1.817372	0.615742	0.014563
 215	1.0700e-01	8.5522	0.819193	-0.001272	-12.721604	-4.310196	0.101944
 216	1.0750e-01	8.6051	0.673559	-0.000363	-3.634744	-1.231485	-0.029127
 217	1.0800e-01	8.6661	0.345881	-0.000818	-8.178174	-2.770840	-0.065535
 218	1.0850e-01	8.6965	0.709967	0.000909	9.086860	3.078712	0.072817
 219	1.0900e-01	8.7976	1.001236	0.000727	7.269488	2.462969	0.058254
 220	1.0950e-01	8.8024	1.110462	0.000273	2.726058	0.923613	0.021845
 221	1.1000e-01	8.8393	1.183279	0.000182	1.817372	0.615742	0.014563
 222	1.1050e-01	8.8586	1.547365	0.000909	9.086860	3.078712	0.072817
 223	1.1100e-01	8.9083	1.729407	0.000454	4.543430	1.539356	0.036409
 224	1.1150e-01	8.9677	1.074053	-0.001636	-16.356348	-5.541681	-0.131071
 225	1.1200e-01	8.9901	1.729407	0.001636	16.356348	5.541681	0.131071
 226	1.1250e-01	9.0575	2.093493	0.000909	9.086860	3.078712	0.072817
 227	1.1300e-01	9.0800	1.765816	-0.000818	-8.178174	-2.770840	-0.065535
 228	1.1350e-01	9.1136	2.457579	0.001727	17.265034	5.849552	0.138353
 229	1.1400e-01	9.1505	2.166310	-0.000727	-7.269488	-2.462969	-0.058254
 230	1.1450e-01	9.2067	2.493988	0.000818	8.178174	2.770840	0.065535
 231	1.1500e-01	9.2324	2.457579	-0.000091	-0.908686	-0.307871	-0.007282
 232	1.1550e-01	9.2853	2.712439	0.000636	6.360802	2.155098	0.050972
 233	1.1600e-01	9.3046	2.967299	0.000636	6.360802	2.155098	0.050972
 234	1.1650e-01	9.3559	3.149342	0.000454	4.543430	1.539356	0.036409
 235	1.1700e-01	9.3703	3.513428	0.000909	9.086860	3.078712	0.072817
 236	1.1750e-01	9.4008	3.731879	0.000545	5.452116	1.847227	0.043690
 237	1.1800e-01	9.4505	3.440611	-0.000727	-7.269488	-2.462969	-0.058254
 238	1.1850e-01	9.5307	3.622653	0.000454	4.543430	1.539356	0.036409
 239	1.1900e-01	9.5741	3.731879	0.000273	2.726058	0.923613	0.021845
 240	1.1950e-01	9.6174	3.804696	0.000182	1.817372	0.615742	0.014563
 241	1.2000e-01	9.6334	3.841105	0.000091	0.908686	0.307871	0.007282
 242	1.2050e-01	9.6783	3.622653	-0.000545	-5.452116	-1.847227	-0.043690
 243	1.2100e-01	9.7297	4.168782	0.001363	13.630290	4.618067	0.109226
 244	1.2150e-01	9.7393	4.205191	0.000091	0.908686	0.307871	0.007282
 245	1.2200e-01	9.7954	4.387234	0.000454	4.543430	1.539356	0.036409
 246	1.2250e-01	9.8275	4.423642	0.000091	0.908686	0.307871	0.007282
 247	1.2300e-01	9.8869	4.787728	0.000909	9.086860	3.078712	0.072817
 248	1.2350e-01	9.9254	5.006179	0.000545	5.452116	1.847227	0.043690
 249	1.2400e-01	9.9767	4.642094	-0.000909	-9.086860	-3.078712	-0.072817
 250	1.2450e-01	10.0200	5.006179	0.000909	9.086860	3.078712	0.072817
 251	1.2500e-01	10.0377	5.261039	0.000636	6.360802	2.155098	0.050972
 252	1.2550e-01	10.0874	5.333857	0.000182	1.817372	0.615742	0.014563
 253	1.2600e-01	10.1371	5.770759	0.001090	10.904232	3.694454	0.087381
 254	1.2650e-01	10.1516	5.625125	-0.000363	-3.634744	-1.231485	-0.029127
 255	1.2700e-01	10.1676	5.807168	0.000454	4.543430	1.539356	0.036409
 256	1.2750e-01	10.2222	5.989211	0.000454	4.543430	1.539356	0.036409
 257	1.2800e-01	10.2639	6.207662	0.000545	5.452116	1.847227	0.043690
 258	1.2850e-01	10.3152	6.062028	-0.000363	-3.634744	-1.231485	-0.029127
 259	1.2900e-01	10.3489	6.207662	0.000363	3.634744	1.231485	0.029127
 260	1.2950e-01	10.3986	6.644565	0.001090	10.904232	3.694454	0.087381
 261	1.3000e-01	10.4323	6.863017	0.000545	5.452116	1.847227	0.043690
 262	1.3050e-01	10.4885	6.608157	-0.000636	-6.360802	-2.155098	-0.050972
 263	1.3100e-01	10.5093	7.263511	0.001636	16.356348	5.541681	0.131071
 264	1.3150e-01	10.5494	7.227103	-0.000091	-0.908686	-0.307871	-0.007282
 265	1.3200e-01	10.5799	7.445554	0.000545	5.452116	1.847227	0.043690
 266	1.3250e-01	10.6280	7.154285	-0.000727	-7.269488	-2.462969	-0.058254
 267	1.3300e-01	10.6906	7.409145	0.000636	6.360802	2.155098	0.050972
 268	1.3350e-01	10.7259	7.664005	0.000636	6.360802	2.155098	0.050972
 269	1.3400e-01	10.7548	7.664005	0.000000	0.000000	0.000000	0.000000
 270	1.3450e-01	10.8125	7.809640	0.000363	3.634744	1.231485	0.029127
 271	1.3500e-01	10.8254	7.955274	0.000363	3.634744	1.231485	0.029127
 272	1.3550e-01	10.8623	8.064500	0.000273	2.726058	0.923613	0.021845
 273	1.3600e-01	10.9088	8.501403	0.001090	10.904232	3.694454	0.087381
 274	1.3650e-01	10.9345	8.610628	0.000273	2.726058	0.923613	0.021845
 275	1.3700e-01	10.9858	9.083940	0.001181	11.812918	4.002325	0.094662
 276	1.3750e-01	11.0371	8.501403	-0.001454	-14.538976	-4.925939	-0.116507
 277	1.3800e-01	11.0708	8.792671	0.000727	7.269488	2.462969	0.058254
 278	1.3850e-01	11.1093	8.501403	-0.000727	-7.269488	-2.462969	-0.058254
 279	1.3900e-01	11.1510	9.265983	0.001908	19.082407	6.465294	0.152916
 280	1.3950e-01	11.1863	9.156757	-0.000273	-2.726058	-0.923613	-0.021845
 281	1.4000e-01	11.2232	9.484434	0.000818	8.178174	2.770840	0.065535
 282	1.4050e-01	11.2681	9.120349	-0.000909	-9.086860	-3.078712	-0.072817
 283	1.4100e-01	11.3147	9.484434	0.000909	9.086860	3.078712	0.072817
 284	1.4150e-01	11.3532	9.666477	0.000454	4.543430	1.539356	0.036409
 285	1.4200e-01	11.4109	9.848520	0.000454	4.543430	1.539356	0.036409
 286	1.4250e-01	11.4558	10.139789	0.000727	7.269488	2.462969	0.058254
 287	1.4300e-01	11.4879	9.739294	-0.001000	-9.995546	-3.386583	-0.080099
 288	1.4350e-01	11.5457	10.030563	0.000727	7.269488	2.462969	0.058254
 289	1.4400e-01	11.5729	10.394649	0.000909	9.086860	3.078712	0.072817
 290	1.4450e-01	11.6162	10.176197	-0.000545	-5.452116	-1.847227	-0.043690
 291	1.4500e-01	11.6403	10.904369	0.001817	18.173720	6.157423	0.145634
 292	1.4550e-01	11.6740	10.831552	-0.000182	-1.817372	-0.615742	-0.014563
 293	1.4600e-01	11.7205	10.904369	0.000182	1.817372	0.615742	0.014563
 294	1.4650e-01	11.7414	10.685917	-0.000545	-5.452116	-1.847227	-0.043690
 295	1.4700e-01	11.8088	10.867960	0.000454	4.543430	1.539356	0.036409
 296	1.4750e-01	11.8232	11.122820	0.000636	6.360802	2.155098	0.050972
 297	1.4800e-01	11.8537	11.414089	0.000727	7.269488	2.462969	0.058254
 298	1.4850e-01	11.8922	11.486906	0.000182	1.817372	0.615742	0.014563
 299	1.4900e-01	11.9355	11.632540	0.000363	3.634744	1.231485	0.029127
 300	1.4950e-01	11.9916	11.850992	0.000545	5.452116	1.847227	0.043690
 301	1.5000e-01	12.0414	11.741766	-0.000273	-2.726058	-0.923613	-0.021845
 302	1.5050e-01	12.0847	12.469938	0.001817	18.173720	6.157423	0.145634
 303	1.5100e-01	12.1344	11.960218	-0.001272	-12.721604	-4.310196	-0.101944
 304	1.5150e-01	12.1521	12.215078	0.000636	6.360802	2.155098	0.050972
 305	1.5200e-01	12.1922	12.178669	-0.000091	-0.908686	-0.307871	-0.007282
 306	1.5250e-01	12.2515	12.870432	0.001727	17.265034	5.849552	0.138353
 307	1.5300e-01	12.2788	12.724798	-0.000363	-3.634744	-1.231485	-0.029127
 308	1.5350e-01	12.2916	13.161701	0.001090	10.904232	3.694454	0.087381
 309	1.5400e-01	12.3510	12.834023	-0.000818	-8.178174	-2.770840	-0.065535
 310	1.5450e-01	12.3959	12.979658	0.000363	3.634744	1.231485	0.029127
 311	1.5500e-01	12.4376	13.016066	0.000091	0.908686	0.307871	0.007282
 312	1.5550e-01	12.4601	13.671421	0.001636	16.356348	5.541681	0.131071
 313	1.5600e-01	12.5034	13.707829	0.000091	0.908686	0.307871	0.007282
 314	1.5650e-01	12.5579	13.598603	-0.000273	-2.726058	-0.923613	-0.021845
 315	1.5700e-01	12.5804	13.562195	-0.000091	-0.908686	-0.307871	-0.007282
 316	1.5750e-01	12.6253	13.926281	0.000909	9.086860	3.078712	0.072817
 317	1.5800e-01	12.6863	13.343743	-0.001454	-14.538976	-4.925939	-0.116507
 318	1.5850e-01	12.7200	14.326775	0.002453	24.534523	8.312521	0.196606
 319	1.5900e-01	12.7585	13.817055	-0.001272	-12.721604	-4.310196	-0.101944
 320	1.5950e-01	12.7729	14.326775	0.001272	12.721604	4.310196	0.101944
 321	1.6000e-01	12.8307	14.508818	0.000454	4.543430	1.539356	0.036409
 322	1.6050e-01	12.8788	14.436001	-0.000182	-1.817372	-0.615742	-0.014563
 323	1.6100e-01	12.9221	14.472409	0.000091	0.908686	0.307871	0.007282
 324	1.6150e-01	12.9381	14.545226	0.000182	1.817372	0.615742	0.014563
 325	1.6200e-01	12.9782	15.273398	0.001817	18.173720	6.157423	0.145634
 326	1.6250e-01	13.0440	14.982129	-0.000727	-7.269488	-2.462969	-0.058254
 327	1.6300e-01	13.0825	15.273398	0.000727	7.269488	2.462969	0.058254
 328	1.6350e-01	13.1162	15.091355	-0.000454	-4.543430	-1.539356	-0.036409
 329	1.6400e-01	13.1579	15.127764	0.000091	0.908686	0.307871	0.007282
 330	1.6450e-01	13.2012	15.710301	0.001454	14.538976	4.925939	0.116507
 331	1.6500e-01	13.2285	15.601075	-0.000273	-2.726058	-0.923613	-0.021845
 332	1.6550e-01	13.2558	15.819527	0.000545	5.452116	1.847227	0.043690
 333	1.6600e-01	13.3215	15.855935	0.000091	0.908686	0.307871	0.007282
 334	1.6650e-01	13.3488	15.965161	0.000273	2.726058	0.923613	0.021845
 335	1.6700e-01	13.4066	16.147204	0.000454	4.543430	1.539356	0.036409
 336	1.6750e-01	13.4499	15.819527	-0.000818	-8.178174	-2.770840	-0.065535
 337	1.6800e-01	13.4772	16.147204	0.000818	8.178174	2.770840	0.065535
 338	1.6850e-01	13.5125	16.474881	0.000818	8.178174	2.770840	0.065535
 339	1.6900e-01	13.5558	16.365655	-0.000273	-2.726058	-0.923613	-0.021845
 340	1.6950e-01	13.5975	17.021010	0.001636	16.356348	5.541681	0.131071
 341	1.7000e-01	13.6504	16.656924	-0.000909	-9.086860	-3.078712	-0.072817
 342	1.7050e-01	13.6713	17.312278	0.001636	16.356348	5.541681	0.131071
 343	1.7100e-01	13.7178	17.275870	-0.000091	-0.908686	-0.307871	-0.007282
 344	1.7150e-01	13.7499	17.166644	-0.000273	-2.726058	-0.923613	-0.021845
 345	1.7200e-01	13.7836	17.093827	-0.000182	-1.817372	-0.615742	-0.014563
 346	1.7250e-01	13.8301	17.494321	0.001000	9.995546	3.386583	0.080099
 347	1.7300e-01	13.8766	17.494321	0.000000	0.000000	0.000000	0.000000
 348	1.7350e-01	13.9247	17.785590	0.000727	7.269488	2.462969	0.058254
 349	1.7400e-01	13.9729	17.967633	0.000454	4.543430	1.539356	0.036409
 350	1.7450e-01	14.0050	17.931224	-0.000091	-0.908686	-0.307871	-0.007282
 351	1.7500e-01	14.0402	17.858407	-0.000182	-1.817372	-0.615742	-0.014563
 352	1.7550e-01	14.0515	18.186084	0.000818	8.178174	2.770840	0.065535
 353	1.7600e-01	14.0932	18.331719	0.000363	3.634744	1.231485	0.029127
 354	1.7650e-01	14.1333	18.368127	0.000091	0.908686	0.307871	0.007282
 355	1.7700e-01	14.2023	18.805030	0.001090	10.904232	3.694454	0.087381
 356	1.7750e-01	14.2520	18.368127	-0.001090	-10.904232	-3.694454	-0.087381
 357	1.7800e-01	14.2584	18.987073	0.001545	15.447662	5.233810	0.123789
 358	1.7850e-01	14.3114	19.132707	0.000363	3.634744	1.231485	0.029127
 359	1.7900e-01	14.3386	18.841439	-0.000727	-7.269488	-2.462969	-0.058254
 360	1.7950e-01	14.3659	19.496793	0.001636	16.356348	5.541681	0.131071
 361	1.8000e-01	14.4221	19.314750	-0.000454	-4.543430	-1.539356	-0.036409
 362	1.8050e-01	14.4557	19.715244	0.001000	9.995546	3.386583	0.080099
 363	1.8100e-01	14.4991	19.169116	-0.001363	-13.630290	-4.618067	-0.109226
 364	1.8150e-01	14.5552	19.678836	0.001272	12.721604	4.310196	0.101944
 365	1.8200e-01	14.5857	19.824470	0.000363	3.634744	1.231485	0.029127
 366	1.8250e-01	14.6226	20.006513	0.000454	4.543430	1.539356	0.036409
 367	1.8300e-01	14.6515	19.642427	-0.000909	-9.086860	-3.078712	-0.072817
 368	1.8350e-01	14.7204	19.970104	0.000818	8.178174	2.770840	0.065535
 369	1.8400e-01	14.7557	20.261373	0.000727	7.269488	2.462969	0.058254
 370	1.8450e-01	14.7894	20.115739	-0.000363	-3.634744	-1.231485	-0.029127
 371	1.8500e-01	14.8375	20.661867	0.001363	13.630290	4.618067	0.109226
 372	1.8550e-01	14.9033	20.370599	-0.000727	-7.269488	-2.462969	-0.058254
 373	1.8600e-01	14.9226	20.589050	0.000545	5.452116	1.847227	0.043690
 374	1.8650e-01	14.9579	20.661867	0.000182	1.817372	0.615742	0.014563
 375	1.8700e-01	14.9883	20.698276	0.000091	0.908686	0.307871	0.007282
 376	1.8750e-01	15.0381	20.916727	0.000545	5.452116	1.847227	0.043690
 377	1.8800e-01	15.0605	21.171588	0.000636	6.360802	2.155098	0.050972
 378	1.8850e-01	15.0958	21.244405	0.000182	1.817372	0.615742	0.014563
 379	1.8900e-01	15.1327	21.280813	0.000091	0.908686	0.307871	0.007282
 380	1.8950e-01	15.1809	21.353630	0.000182	1.817372	0.615742	0.014563
 381	1.9000e-01	15.2161	21.535673	0.000454	4.543430	1.539356	0.036409
 382	1.9050e-01	15.2739	21.754125	0.000545	5.452116	1.847227	0.043690
 383	1.9100e-01	15.3188	22.045393	0.000727	7.269488	2.462969	0.058254
 384	1.9150e-01	15.3493	21.681308	-0.000909	-9.086860	-3.078712	-0.072817
 385	1.9200e-01	15.3782	22.300253	0.001545	15.447662	5.233810	0.123789
 386	1.9250e-01	15.4391	22.008985	-0.000727	-7.269488	-2.462969	-0.058254
 387	1.9300e-01	15.4728	22.008985	0.000000	0.000000	0.000000	0.000000
 388	1.9350e-01	15.5177	22.227436	0.000545	5.452116	1.847227	0.043690
 389	1.9400e-01	15.5498	22.737156	0.001272	12.721604	4.310196	0.101944
 390	1.9450e-01	15.5739	22.809973	0.000182	1.817372	0.615742	0.014563
 391	1.9500e-01	15.6156	23.064834	0.000636	6.360802	2.155098	0.050972
 392	1.9550e-01	15.6734	23.210468	0.000363	3.634744	1.231485	0.029127
 393	1.9600e-01	15.7151	22.919199	-0.000727	-7.269488	-2.462969	-0.058254
 394	1.9650e-01	15.7439	23.210468	0.000727	7.269488	2.462969	0.058254
 395	1.9700e-01	15.8033	23.210468	0.000000	0.000000	0.000000	0.000000
 396	1.9750e-01	15.8434	22.992016	-0.000545	-5.452116	-1.847227	-0.043690
 397	1.9800e-01	15.8675	23.028425	0.000091	0.908686	0.307871	0.007282
 398	1.9850e-01	15.8963	23.829414	0.001999	19.991093	6.773166	0.160198
 399	1.9900e-01	15.9541	23.574554	-0.000636	-6.360802	-2.155098	-0.050972
 400	1.9950e-01	15.9878	23.829414	0.000636	6.360802	2.155098	0.050972
 401	2.0000e-01	16.0359	23.975048	0.000363	3.634744	1.231485	0.029127
 402	2.0050e-01	16.0808	23.793005	-0.000454	-4.543430	-1.539356	-0.036409
 403	2.0100e-01	16.0937	23.975048	0.000454	4.543430	1.539356	0.036409
 404	2.0150e-01	16.1530	24.302725	0.000818	8.178174	2.770840	0.065535
 405	2.0200e-01	16.1771	24.229908	-0.000182	-1.817372	-0.615742	-0.014563
 406	2.0250e-01	16.2172	24.448359	0.000545	5.452116	1.847227	0.043690
 407	2.0300e-01	16.2798	24.557585	0.000273	2.726058	0.923613	0.021845
 408	2.0350e-01	16.3118	24.812445	0.000636	6.360802	2.155098	0.050972
 409	2.0400e-01	16.3552	24.885262	0.000182	1.817372	0.615742	0.014563
 410	2.0450e-01	16.3888	24.994488	0.000273	2.726058	0.923613	0.021845
 411	2.0500e-01	16.4289	25.030897	0.000091	0.908686	0.307871	0.007282
 412	2.0550e-01	16.4691	25.212940	0.000454	4.543430	1.539356	0.036409
 413	2.0600e-01	16.5027	25.249348	0.000091	0.908686	0.307871	0.007282
 414	2.0650e-01	16.5477	25.431391	0.000454	4.543430	1.539356	0.036409
 415	2.0700e-01	16.5942	25.759068	0.000818	8.178174	2.770840	0.065535
 416	2.0750e-01	16.6311	25.285757	-0.001181	-11.812918	-4.002325	-0.094662
 417	2.0800e-01	16.6872	25.904703	0.001545	15.447662	5.233810	0.123789
 418	2.0850e-01	16.7065	26.013928	0.000273	2.726058	0.923613	0.021845
 419	2.0900e-01	16.7289	26.086745	0.000182	1.817372	0.615742	0.014563
 420	2.0950e-01	16.7755	25.831885	-0.000636	-6.360802	-2.155098	-0.050972
 421	2.1000e-01	16.8316	25.868294	0.000091	0.908686	0.307871	0.007282
 422	2.1050e-01	16.8717	26.050337	0.000454	4.543430	1.539356	0.036409
 423	2.1100e-01	16.9295	26.341605	0.000727	7.269488	2.462969	0.058254
 424	2.1150e-01	16.9439	26.487240	0.000363	3.634744	1.231485	0.029127
 425	2.1200e-01	16.9904	26.523648	0.000091	0.908686	0.307871	0.007282
 426	2.1250e-01	17.0418	26.159563	-0.000909	-9.086860	-3.078712	-0.072817
 427	2.1300e-01	17.0722	26.996960	0.002090	20.899779	7.081037	0.167479
 428	2.1350e-01	17.1156	26.669283	-0.000818	-8.178174	-2.770840	-0.065535
 429	2.1400e-01	17.1444	26.487240	-0.000454	-4.543430	-1.539356	-0.036409
 430	2.1450e-01	17.1845	26.996960	0.001272	12.721604	4.310196	0.101944
 431	2.1500e-01	17.2327	27.251820	0.000636	6.360802	2.155098	0.050972
 432	2.1550e-01	17.2776	27.397454	0.000363	3.634744	1.231485	0.029127
 433	2.1600e-01	17.3049	27.688723	0.000727	7.269488	2.462969	0.058254
 434	2.1650e-01	17.3562	27.397454	-0.000727	-7.269488	-2.462969	-0.058254
 435	2.1700e-01	17.3835	27.761540	0.000909	9.086860	3.078712	0.072817
 436	2.1750e-01	17.4252	27.725131	-0.000091	-0.908686	-0.307871	-0.007282
 437	2.1800e-01	17.4749	27.652314	-0.000182	-1.817372	-0.615742	-0.014563
 438	2.1850e-01	17.5086	27.797949	0.000363	3.634744	1.231485	0.029127
 439	2.1900e-01	17.5327	27.943583	0.000363	3.634744	1.231485	0.029127
 440	2.1950e-01	17.5856	28.125626	0.000454	4.543430	1.539356	0.036409
 441	2.2000e-01	17.6177	28.307669	0.000454	4.543430	1.539356	0.036409
 442	2.2050e-01	17.6690	28.162034	-0.000363	-3.634744	-1.231485	-0.029127
 443	2.2100e-01	17.6979	28.562529	0.001000	9.995546	3.386583	0.080099
 444	2.2150e-01	17.7492	28.963023	0.001000	9.995546	3.386583	0.080099
 445	2.2200e-01	17.7749	28.708163	-0.000636	-6.360802	-2.155098	-0.050972
 446	2.2250e-01	17.8278	28.744572	0.000091	0.908686	0.307871	0.007282
 447	2.2300e-01	17.8760	29.035840	0.000727	7.269488	2.462969	0.058254
 448	2.2350e-01	17.9177	29.072249	0.000091	0.908686	0.307871	0.007282
 449	2.2400e-01	17.9514	29.363517	0.000727	7.269488	2.462969	0.058254
 450	2.2450e-01	17.9818	29.145066	-0.000545	-5.452116	-1.847227	-0.043690
 451	2.2500e-01	18.0220	29.436334	0.000727	7.269488	2.462969	0.058254
 452	2.2550e-01	18.0829	29.654786	0.000545	5.452116	1.847227	0.043690
 453	2.2600e-01	18.0990	29.327109	-0.000818	-8.178174	-2.770840	-0.065535
 454	2.2650e-01	18.1487	29.836829	0.001272	12.721604	4.310196	0.101944
 455	2.2700e-01	18.1776	29.982463	0.000363	3.634744	1.231485	0.029127
 456	2.2750e-01	18.2417	29.727603	-0.000636	-6.360802	-2.155098	-0.050972
 457	2.2800e-01	18.2834	29.764012	0.000091	0.908686	0.307871	0.007282
 458	2.2850e-01	18.2979	30.055280	0.000727	7.269488	2.462969	0.058254
 459	2.2900e-01	18.3316	29.982463	-0.000182	-1.817372	-0.615742	-0.014563
 460	2.2950e-01	18.3717	30.310140	0.000818	8.178174	2.770840	0.065535
 461	2.3000e-01	18.4230	29.982463	-0.000818	-8.178174	-2.770840	-0.065535
 462	2.3050e-01	18.4808	30.601409	0.001545	15.447662	5.233810	0.123789
 463	2.3100e-01	18.5225	30.637818	0.000091	0.908686	0.307871	0.007282
 464	2.3150e-01	18.5305	30.637818	0.000000	0.000000	0.000000	0.000000
 465	2.3200e-01	18.5738	30.892678	0.000636	6.360802	2.155098	0.050972
 466	2.3250e-01	18.6219	30.783452	-0.000273	-2.726058	-0.923613	-0.021845
 467	2.3300e-01	18.6652	31.038312	0.000636	6.360802	2.155098	0.050972
 468	2.3350e-01	18.7038	31.001903	-0.000091	-0.908686	-0.307871	-0.007282
 469	2.3400e-01	18.7423	31.183946	0.000454	4.543430	1.539356	0.036409
 470	2.3450e-01	18.7856	31.329580	0.000363	3.634744	1.231485	0.029127
 471	2.3500e-01	18.8177	31.548032	0.000545	5.452116	1.847227	0.043690
 472	2.3550e-01	18.8465	31.584441	0.000091	0.908686	0.307871	0.007282
 473	2.3600e-01	18.9251	31.730075	0.000363	3.634744	1.231485	0.029127
 474	2.3650e-01	18.9364	31.693666	-0.000091	-0.908686	-0.307871	-0.007282
 475	2.3700e-01	18.9893	32.203386	0.001272	12.721604	4.310196	0.101944
 476	2.3750e-01	19.0326	31.912118	-0.000727	-7.269488	-2.462969	-0.058254
 477	2.3800e-01	19.0679	32.166978	0.000636	6.360802	2.155098	0.050972
 478	2.3850e-01	19.0984	32.239795	0.000182	1.817372	0.615742	0.014563
 479	2.3900e-01	19.1433	32.239795	0.000000	0.000000	0.000000	0.000000
 480	2.3950e-01	19.1818	31.984935	-0.000636	-6.360802	-2.155098	-0.050972
 481	2.4000e-01	19.2123	32.603881	0.001545	15.447662	5.233810	0.123789
 482	2.4050e-01	19.2845	32.494655	-0.000273	-2.726058	-0.923613	-0.021845
 483	2.4100e-01	19.3230	32.276203	-0.000545	-5.452116	-1.847227	-0.043690
 484	2.4150e-01	19.3150	33.186418	-0.002272	-22.717151	-7.696779	0.182043
 485	2.4200e-01	19.3711	33.077192	-0.000273	-2.726058	-0.923613	-0.021845
 486	2.4250e-01	19.4080	33.150009	0.000182	1.817372	0.615742	0.014563
 487	2.4300e-01	19.4642	33.222826	0.000182	1.817372	0.615742	0.014563
 488	2.4350e-01	19.5155	32.931558	-0.000727	-7.269488	-2.462969	-0.058254
 489	2.4400e-01	19.5620	33.259235	0.000818	8.178174	2.770840	0.065535
 490	2.4450e-01	19.5813	33.368461	0.000273	2.726058	0.923613	0.021845
 491	2.4500e-01	19.6278	33.441278	0.000182	1.817372	0.615742	0.014563
 492	2.4550e-01	19.6599	33.332052	-0.000273	-2.726058	-0.923613	-0.021845
 493	2.4600e-01	19.6904	33.914589	0.001454	14.538976	4.925939	0.116507
 494	2.4650e-01	19.7433	33.732547	-0.000454	-4.543430	-1.539356	-0.036409
 495	2.4700e-01	19.7994	33.914589	0.000454	4.543430	1.539356	0.036409
 496	2.4750e-01	19.8203	34.169449	0.000636	6.360802	2.155098	0.050972
 497	2.4800e-01	19.8347	34.315084	0.000363	3.634744	1.231485	0.029127
 498	2.4850e-01	19.8973	34.133041	-0.000454	-4.543430	-1.539356	-0.036409
 499	2.4900e-01	19.9743	33.950998	-0.000454	-4.543430	-1.539356	-0.036409
 500	2.4950e-01	19.9919	34.460718	0.001272	12.721604	4.310196	0.101944
 501	2.5000e-01	20.0112	34.351492	-0.000273	-2.726058	-0.923613	-0.021845
 502	2.5050e-01	19.9807	34.096632	0.000636	6.360802	2.155098	-0.050972
 503	2.5100e-01	19.9470	34.424310	-0.000818	-8.178174	-2.770840	0.065535
 504	2.5150e-01	19.8925	34.351492	0.000182	1.817372	0.615742	-0.014563
 505	2.5200e-01	19.8620	33.841772	0.001272	12.721604	4.310196	-0.101944
 506	2.5250e-01	19.8283	33.477687	0.000909	9.086860	3.078712	-0.072817
 507	2.5300e-01	19.7850	34.205858	-0.001817	-18.173720	-6.157423	0.145634
 508	2.5350e-01	19.7433	33.732547	0.001181	11.812918	4.002325	-0.094662
 509	2.5400e-01	19.7112	33.987407	-0.000636	-6.360802	-2.155098	0.050972
 510	2.5450e-01	19.6615	33.186418	0.001999	19.991093	6.773166	-0.160198
 511	2.5500e-01	19.6342	33.987407	-0.001999	-19.991093	-6.773166	0.160198
 512	2.5550e-01	19.5893	33.368461	0.001545	15.447662	5.233810	-0.123789
 513	2.5600e-01	19.5476	33.295644	0.000182	1.817372	0.615742	-0.014563
 514	2.5650e-01	19.5043	33.222826	0.000182	1.817372	0.615742	-0.014563
 515	2.5700e-01	19.4577	32.931558	0.000727	7.269488	2.462969	-0.058254
 516	2.5750e-01	19.4257	33.259235	-0.000818	-8.178174	-2.770840	0.065535
 517	2.5800e-01	19.4241	32.931558	0.000818	8.178174	2.770840	-0.065535
 518	2.5850e-01	19.3759	32.567472	0.000909	9.086860	3.078712	-0.072817
 519	2.5900e-01	19.2893	32.640289	-0.000182	-1.817372	-0.615742	0.014563
 520	2.5950e-01	19.2620	32.967966	-0.000818	-8.178174	-2.770840	0.065535
 521	2.6000e-01	19.2155	32.749515	0.000545	5.452116	1.847227	-0.043690
 522	2.6050e-01	19.1898	32.349021	0.001000	9.995546	3.386583	-0.080099
 523	2.6100e-01	19.1369	32.385429	-0.000091	-0.908686	-0.307871	0.007282
 524	2.6150e-01	19.1048	32.603881	-0.000545	-5.452116	-1.847227	0.043690
 525	2.6200e-01	19.0535	32.094161	0.001272	12.721604	4.310196	-0.101944
 526	2.6250e-01	19.0374	32.276203	-0.000454	-4.543430	-1.539356	0.036409
 527	2.6300e-01	18.9957	32.166978	0.000273	2.726058	0.923613	-0.021845
 528	2.6350e-01	18.9492	32.021343	0.000363	3.634744	1.231485	-0.029127
 529	2.6400e-01	18.9043	31.730075	0.000727	7.269488	2.462969	-0.058254
 530	2.6450e-01	18.8658	31.730075	-0.000000	-0.000000	-0.000000	0.000000
 531	2.6500e-01	18.8289	31.438806	0.000727	7.269488	2.462969	-0.058254
 532	2.6550e-01	18.7920	31.839301	-0.001000	-9.995546	-3.386583	0.080099
 533	2.6600e-01	18.7519	31.511623	0.000818	8.178174	2.770840	-0.065535
 534	2.6650e-01	18.7214	31.111129	0.001000	9.995546	3.386583	-0.080099
 535	2.6700e-01	18.6636	31.475215	-0.000909	-9.086860	-3.078712	0.072817
 536	2.6750e-01	18.6091	31.511623	-0.000091	-0.908686	-0.307871	0.007282
 537	2.6800e-01	18.6043	31.111129	0.001000	9.995546	3.386583	-0.080099
 538	2.6850e-01	18.5449	31.074720	0.000091	0.908686	0.307871	-0.007282
 539	2.6900e-01	18.4984	30.856269	0.000545	5.452116	1.847227	-0.043690
 540	2.6950e-01	18.4455	30.601409	0.000636	6.360802	2.155098	-0.050972
 541	2.7000e-01	18.4198	30.892678	-0.000727	-7.269488	-2.462969	0.058254
 542	2.7050e-01	18.3813	30.783452	0.000273	2.726058	0.923613	-0.021845
 543	2.7100e-01	18.3235	30.783452	-0.000000	-0.000000	-0.000000	0.000000
 544	2.7150e-01	18.2979	30.237323	0.001363	13.630290	4.618067	-0.109226
 545	2.7200e-01	18.2818	30.492183	-0.000636	-6.360802	-2.155098	0.050972
 546	2.7250e-01	18.2369	30.382957	0.000273	2.726058	0.923613	-0.021845
 547	2.7300e-01	18.1840	30.164506	0.000545	5.452116	1.847227	-0.043690
 548	2.7350e-01	18.1535	30.200915	-0.000091	-0.908686	-0.307871	0.007282
 549	2.7400e-01	18.1006	30.128097	0.000182	1.817372	0.615742	-0.014563
 550	2.7450e-01	18.0460	30.164506	-0.000091	-0.908686	-0.307871	0.007282
 551	2.7500e-01	18.0171	29.800420	0.000909	9.086860	3.078712	-0.072817
 552	2.7550e-01	17.9754	29.727603	0.000182	1.817372	0.615742	-0.014563
 553	2.7600e-01	17.9562	30.237323	-0.001272	-12.721604	-4.310196	0.101944
 554	2.7650e-01	17.9000	29.618377	0.001545	15.447662	5.233810	-0.123789
 555	2.7700e-01	17.8615	29.618377	-0.000000	-0.000000	-0.000000	0.000000
 556	2.7750e-01	17.8294	29.108657	0.001272	12.721604	4.310196	-0.101944
 557	2.7800e-01	17.7733	29.363517	-0.000636	-6.360802	-2.155098	0.050972
 558	2.7850e-01	17.7573	29.399926	-0.000091	-0.908686	-0.307871	0.007282
 559	2.7900e-01	17.7011	29.181474	0.000545	5.452116	1.847227	-0.043690
 560	2.7950e-01	17.6482	28.926614	0.000636	6.360802	2.155098	-0.050972
 561	2.8000e-01	17.6193	28.853797	0.000182	1.817372	0.615742	-0.014563
 562	2.8050e-01	17.5888	28.671754	0.000454	4.543430	1.539356	-0.036409
 563	2.8100e-01	17.5455	28.817389	-0.000363	-3.634744	-1.231485	0.029127
 564	2.8150e-01	17.5022	28.708163	0.000273	2.726058	0.923613	-0.021845
 565	2.8200e-01	17.4685	28.489711	0.000545	5.452116	1.847227	-0.043690
 566	2.8250e-01	17.4508	28.708163	-0.000545	-5.452116	-1.847227	0.043690
 567	2.8300e-01	17.3851	28.162034	0.001363	13.630290	4.618067	-0.109226
 568	2.8350e-01	17.3450	28.489711	-0.000818	-8.178174	-2.770840	0.065535
 569	2.8400e-01	17.3033	28.162034	0.000818	8.178174	2.770840	-0.065535
 570	2.8450e-01	17.2535	28.307669	-0.000363	-3.634744	-1.231485	0.029127
 571	2.8500e-01	17.2182	28.635346	-0.000818	-8.178174	-2.770840	0.065535
 572	2.8550e-01	17.2006	27.725131	0.002272	22.717151	7.696779	-0.182043
 573	2.8600e-01	17.1701	27.688723	0.000091	0.908686	0.307871	-0.007282
 574	2.8650e-01	17.1252	27.579497	0.000273	2.726058	0.923613	-0.021845
 575	2.8700e-01	17.0578	27.688723	-0.000273	-2.726058	-0.923613	0.021845
 576	2.8750e-01	17.0353	27.579497	0.000273	2.726058	0.923613	-0.021845
 577	2.8800e-01	16.9904	27.215411	0.000909	9.086860	3.078712	-0.072817
 578	2.8850e-01	16.9295	27.506680	-0.000727	-7.269488	-2.462969	0.058254
 579	2.8900e-01	16.9070	27.288228	0.000545	5.452116	1.847227	-0.043690
 580	2.8950e-01	16.8589	27.033368	0.000636	6.360802	2.155098	-0.050972
 581	2.9000e-01	16.8220	26.924143	0.000273	2.726058	0.923613	-0.021845
 582	2.9050e-01	16.7706	26.669283	0.000636	6.360802	2.155098	-0.050972
 583	2.9100e-01	16.7289	26.887734	-0.000545	-5.452116	-1.847227	0.043690
 584	2.9150e-01	16.7081	26.778508	0.000273	2.726058	0.923613	-0.021845
 585	2.9200e-01	16.6712	26.632874	0.000363	3.634744	1.231485	-0.029127
 586	2.9250e-01	16.6215	26.778508	-0.000363	-3.634744	-1.231485	0.029127
 587	2.9300e-01	16.5942	26.414423	0.000909	9.086860	3.078712	-0.072817
 588	2.9350e-01	16.5685	26.123154	0.000727	7.269488	2.462969	-0.058254
 589	2.9400e-01	16.5092	26.268788	-0.000363	-3.634744	-1.231485	0.029127
 590	2.9450e-01	16.4466	26.195971	0.000182	1.817372	0.615742	-0.014563
 591	2.9500e-01	16.4370	26.305197	-0.000273	-2.726058	-0.923613	0.021845
 592	2.9550e-01	16.3664	26.013928	0.000727	7.269488	2.462969	-0.058254
 593	2.9600e-01	16.3375	25.467800	0.001363	13.630290	4.618067	-0.109226
 594	2.9650e-01	16.2958	25.904703	-0.001090	-10.904232	-3.694454	0.087381
 595	2.9700e-01	16.2396	25.358574	0.001363	13.630290	4.618067	-0.109226
 596	2.9750e-01	16.2300	25.504208	-0.000363	-3.634744	-1.231485	0.029127
 597	2.9800e-01	16.1755	25.322165	0.000454	4.543430	1.539356	-0.036409
 598	2.9850e-01	16.1626	25.358574	-0.000091	-0.908686	-0.307871	0.007282
 599	2.9900e-01	16.1145	25.212940	0.000363	3.634744	1.231485	-0.029127
 600	2.9950e-01	16.0311	24.812445	0.001000	9.995546	3.386583	-0.080099
 601	3.0000e-01	15.9974	25.431391	-0.001545	-15.447662	-5.233810	0.123789
 602	3.0050e-01	15.9669	25.140122	0.000727	7.269488	2.462969	-0.058254
 603	3.0100e-01	15.9445	24.630402	0.001272	12.721604	4.310196	-0.101944
 604	3.0150e-01	15.9156	24.557585	0.000182	1.817372	0.615742	-0.014563
 605	3.0200e-01	15.8627	24.776037	-0.000545	-5.452116	-1.847227	0.043690
 606	3.0250e-01	15.8001	24.630402	0.000363	3.634744	1.231485	-0.029127
 607	3.0300e-01	15.7792	24.375542	0.000636	6.360802	2.155098	-0.050972
 608	3.0350e-01	15.7471	24.120682	0.000636	6.360802	2.155098	-0.050972
 609	3.0400e-01	15.7070	24.266317	-0.000363	-3.634744	-1.231485	0.029127
 610	3.0450e-01	15.6718	24.193499	0.000182	1.817372	0.615742	-0.014563
 611	3.0500e-01	15.6252	24.157091	0.000091	0.908686	0.307871	-0.007282
 612	3.0550e-01	15.5947	23.720188	0.001090	10.904232	3.694454	-0.087381
 613	3.0600e-01	15.5434	23.610962	0.000273	2.726058	0.923613	-0.021845
 614	3.0650e-01	15.4760	24.411951	-0.001999	-19.991093	-6.773166	0.160198
 615	3.0700e-01	15.4552	23.501736	0.002272	22.717151	7.696779	-0.182043
 616	3.0750e-01	15.4119	23.538145	-0.000091	-0.908686	-0.307871	0.007282
 617	3.0800e-01	15.3814	23.574554	-0.000091	-0.908686	-0.307871	0.007282
 618	3.0850e-01	15.3557	22.846382	0.001817	18.173720	6.157423	-0.145634
 619	3.0900e-01	15.3140	23.610962	-0.001908	-19.082407	-6.465294	0.152916
 620	3.0950e-01	15.2691	23.174059	0.001090	10.904232	3.694454	-0.087381
 621	3.1000e-01	15.2258	22.627931	0.001363	13.630290	4.618067	-0.109226
 622	3.1050e-01	15.1841	23.137651	-0.001272	-12.721604	-4.310196	0.101944
 623	3.1100e-01	15.1343	22.700748	0.001090	10.904232	3.694454	-0.087381
 624	3.1150e-01	15.1071	22.373071	0.000818	8.178174	2.770840	-0.065535
 625	3.1200e-01	15.0621	22.300253	0.000182	1.817372	0.615742	-0.014563
 626	3.1250e-01	15.0172	22.445888	-0.000363	-3.634744	-1.231485	0.029127
 627	3.1300e-01	14.9916	22.445888	-0.000000	-0.000000	-0.000000	0.000000
 628	3.1350e-01	14.9514	22.409479	0.000091	0.908686	0.307871	-0.007282
 629	3.1400e-01	14.9033	22.081802	0.000818	8.178174	2.770840	-0.065535
 630	3.1450e-01	14.8488	22.154619	-0.000182	-1.817372	-0.615742	0.014563
 631	3.1500e-01	14.8055	21.754125	0.001000	9.995546	3.386583	-0.080099
 632	3.1550e-01	14.7541	21.826942	-0.000182	-1.817372	-0.615742	0.014563
 633	3.1600e-01	14.7573	21.644899	-0.000454	-4.543430	-1.539356	-0.036409
 634	3.1650e-01	14.7253	21.317222	0.000818	8.178174	2.770840	-0.065535
 635	3.1700e-01	14.6563	21.608490	-0.000727	-7.269488	-2.462969	0.058254
 636	3.1750e-01	14.6370	21.535673	0.000182	1.817372	0.615742	-0.014563
 637	3.1800e-01	14.5953	21.207996	0.000818	8.178174	2.770840	-0.065535
 638	3.1850e-01	14.5552	21.317222	-0.000273	-2.726058	-0.923613	0.021845
 639	3.1900e-01	14.5055	21.025953	0.000727	7.269488	2.462969	-0.058254
 640	3.1950e-01	14.4509	21.098770	-0.000182	-1.817372	-0.615742	0.014563
 641	3.2000e-01	14.4156	20.916727	0.000454	4.543430	1.539356	-0.036409
 642	3.2050e-01	14.3836	20.698276	0.000545	5.452116	1.847227	-0.043690
 643	3.2100e-01	14.3531	20.589050	0.000273	2.726058	0.923613	-0.021845
 644	3.2150e-01	14.2889	20.370599	0.000545	5.452116	1.847227	-0.043690
 645	3.2200e-01	14.2648	20.224965	0.000363	3.634744	1.231485	-0.029127
 646	3.2250e-01	14.2215	20.297782	-0.000182	-1.817372	-0.615742	0.014563
 647	3.2300e-01	14.1782	20.261373	0.000091	0.908686	0.307871	-0.007282
 648	3.2350e-01	14.1413	20.224965	0.000091	0.908686	0.307871	-0.007282
 649	3.2400e-01	14.0787	19.824470	0.001000	9.995546	3.386583	-0.080099
 650	3.2450e-01	14.0547	20.188556	-0.000909	-9.086860	-3.078712	0.072817
 651	3.2500e-01	14.0290	19.678836	0.001272	12.721604	4.310196	-0.101944
 652	3.2550e-01	13.9841	19.642427	0.000091	0.908686	0.307871	-0.007282
 653	3.2600e-01	13.9504	19.387567	0.000636	6.360802	2.155098	-0.050972
 654	3.2650e-01	13.9103	19.169116	0.000545	5.452116	1.847227	-0.043690
 655	3.2700e-01	13.8798	19.205524	-0.000091	-0.908686	-0.307871	0.007282
 656	3.2750e-01	13.8365	19.496793	-0.000727	-7.269488	-2.462969	0.058254
 657	3.2800e-01	13.8044	19.314750	0.000454	4.543430	1.539356	-0.036409
 658	3.2850e-01	13.7435	18.914256	0.001000	9.995546	3.386583	-0.080099
 659	3.2900e-01	13.6809	18.695804	0.000545	5.452116	1.847227	-0.043690
 660	3.2950e-01	13.6328	18.950664	-0.000636	-6.360802	-2.155098	0.050972
 661	3.3000e-01	13.6215	18.768621	0.000454	4.543430	1.539356	-0.036409
 662	3.3050e-01	13.6055	18.513761	0.000636	6.360802	2.155098	-0.050972
 663	3.3100e-01	13.5253	18.659396	-0.000363	-3.634744	-1.231485	0.029127
 664	3.3150e-01	13.4820	18.186084	0.001181	11.812918	4.002325	-0.094662
 665	3.3200e-01	13.4643	18.222493	-0.000091	-0.908686	-0.307871	0.007282
 666	3.3250e-01	13.4338	18.149676	0.000182	1.817372	0.615742	-0.014563
 667	3.3300e-01	13.3937	17.567138	0.001454	14.538976	4.925939	-0.116507
 668	3.3350e-01	13.3376	17.603547	-0.000091	-0.908686	-0.307871	0.007282
 669	3.3400e-01	13.3039	17.603547	-0.000000	-0.000000	-0.000000	0.000000
 670	3.3450e-01	13.2574	17.530730	0.000182	1.817372	0.615742	-0.014563
 671	3.3500e-01	13.2141	17.639956	-0.000273	-2.726058	-0.923613	0.021845
 672	3.3550e-01	13.1788	17.567138	0.000182	1.817372	0.615742	-0.014563
 673	3.3600e-01	13.1451	17.421504	0.000363	3.634744	1.231485	-0.029127
 674	3.3650e-01	13.0905	17.385096	0.000091	0.908686	0.307871	-0.007282
 675	3.3700e-01	13.0601	16.620515	0.001908	19.082407	6.465294	-0.152916
 676	3.3750e-01	13.0360	16.802558	-0.000454	-4.543430	-1.539356	0.036409
 677	3.3800e-01	12.9847	16.620515	0.000454	4.543430	1.539356	-0.036409
 678	3.3850e-01	12.9430	17.021010	-0.001000	-9.995546	-3.386583	0.080099
 679	3.3900e-01	12.9157	16.729741	0.000727	7.269488	2.462969	-0.058254
 680	3.3950e-01	12.8659	16.766150	-0.000091	-0.908686	-0.307871	0.007282
 681	3.4000e-01	12.8146	16.656924	0.000273	2.726058	0.923613	-0.021845
 682	3.4050e-01	12.7649	16.365655	0.000727	7.269488	2.462969	-0.058254
 683	3.4100e-01	12.7119	16.547698	-0.000454	-4.543430	-1.539356	0.036409
 684	3.4150e-01	12.6766	16.110795	0.001090	10.904232	3.694454	-0.087381
 685	3.4200e-01	12.6590	15.746710	0.000909	9.086860	3.078712	-0.072817
 686	3.4250e-01	12.6109	15.710301	0.000091	0.908686	0.307871	-0.007282
 687	3.4300e-01	12.5852	15.819527	-0.000273	-2.726058	-0.923613	0.021845
 688	3.4350e-01	12.5644	15.673892	0.000363	3.634744	1.231485	-0.029127
 689	3.4400e-01	12.5098	15.819527	-0.000363	-3.634744	-1.231485	0.029127
 690	3.4450e-01	12.4713	15.491849	0.000818	8.178174	2.770840	-0.065535
 691	3.4500e-01	12.4376	15.236989	0.000636	6.360802	2.155098	-0.050972
 692	3.4550e-01	12.3847	15.419032	-0.000454	-4.543430	-1.539356	0.036409
 693	3.4600e-01	12.3558	15.091355	0.000818	8.178174	2.770840	-0.065535
 694	3.4650e-01	12.3013	15.091355	-0.000000	-0.000000	-0.000000	0.000000
 695	3.4700e-01	12.2692	14.508818	0.001454	14.538976	4.925939	-0.116507
 696	3.4750e-01	12.2547	15.054947	-0.001363	-13.630290	-4.618067	0.109226
 697	3.4800e-01	12.1874	14.581635	0.001181	11.812918	4.002325	-0.094662
 698	3.4850e-01	12.1440	14.690861	-0.000273	-2.726058	-0.923613	0.021845
 699	3.4900e-01	12.0975	14.472409	0.000545	5.452116	1.847227	-0.043690
 700	3.4950e-01	12.0654	14.035506	0.001090	10.904232	3.694454	-0.087381
 701	3.5000e-01	12.0334	14.253958	-0.000545	-5.452116	-1.847227	0.043690
 702	3.5050e-01	11.9756	13.926281	0.000818	8.178174	2.770840	-0.065535
 703	3.5100e-01	11.9451	14.144732	-0.000545	-5.452116	-1.847227	0.043690
 704	3.5150e-01	11.9162	13.780646	0.000909	9.086860	3.078712	-0.072817
 705	3.5200e-01	11.8633	13.343743	0.001090	10.904232	3.694454	-0.087381
 706	3.5250e-01	11.8152	13.052475	0.000727	7.269488	2.462969	-0.058254
 707	3.5300e-01	11.7799	13.416561	-0.000909	-9.086860	-3.078712	0.072817
 708	3.5350e-01	11.7574	13.198109	0.000545	5.452116	1.847227	-0.043690
 709	3.5400e-01	11.7109	13.452969	-0.000636	-6.360802	-2.155098	0.050972
 710	3.5450e-01	11.6580	12.979658	0.001181	11.812918	4.002325	-0.094662
 711	3.5500e-01	11.6307	12.979658	-0.000000	-0.000000	-0.000000	0.000000
 712	3.5550e-01	11.6018	12.724798	0.000636	6.360802	2.155098	-0.050972
 713	3.5600e-01	11.5473	13.016066	-0.000727	-7.269488	-2.462969	0.058254
 714	3.5650e-01	11.5056	12.542755	0.001181	11.812918	4.002325	-0.094662
 715	3.5700e-01	11.4430	12.761206	-0.000545	-5.452116	-1.847227	0.043690
 716	3.5750e-01	11.4334	12.105852	0.001636	16.356348	5.541681	-0.131071
 717	3.5800e-01	11.3901	12.142260	-0.000091	-0.908686	-0.307871	0.007282
 718	3.5850e-01	11.3387	12.105852	0.000091	0.908686	0.307871	-0.007282
 719	3.5900e-01	11.3018	12.287895	-0.000454	-4.543430	-1.539356	0.036409
 720	3.5950e-01	11.2810	11.814583	0.001181	11.812918	4.002325	-0.094662
 721	3.6000e-01	11.2072	12.069443	-0.000636	-6.360802	-2.155098	0.050972
 722	3.6050e-01	11.1943	11.741766	0.000818	8.178174	2.770840	-0.065535
 723	3.6100e-01	11.1462	11.596132	0.000363	3.634744	1.231485	-0.029127
 724	3.6150e-01	11.1173	11.414089	0.000454	4.543430	1.539356	-0.036409
 725	3.6200e-01	11.0612	11.486906	-0.000182	-1.817372	-0.615742	0.014563
 726	3.6250e-01	11.0179	10.977186	0.001272	12.721604	4.310196	-0.101944
 727	3.6300e-01	10.9730	11.086412	-0.000273	-2.726058	-0.923613	0.021845
 728	3.6350e-01	10.9312	11.122820	-0.000091	-0.908686	-0.307871	0.007282
 729	3.6400e-01	10.8879	10.831552	0.000727	7.269488	2.462969	-0.058254
 730	3.6450e-01	10.8639	10.758734	0.000182	1.817372	0.615742	-0.014563
 731	3.6500e-01	10.8254	10.649509	0.000273	2.726058	0.923613	-0.021845
 732	3.6550e-01	10.7981	10.321832	0.000818	8.178174	2.770840	-0.065535
 733	3.6600e-01	10.7564	10.321832	-0.000000	-0.000000	-0.000000	0.000000
 734	3.6650e-01	10.7034	10.321832	-0.000000	-0.000000	-0.000000	0.000000
 735	3.6700e-01	10.6521	9.884929	0.001090	10.904232	3.694454	-0.087381
 736	3.6750e-01	10.6280	10.431057	-0.001363	-13.630290	-4.618067	0.109226
 737	3.6800e-01	10.5783	9.812111	0.001545	15.447662	5.233810	-0.123789
 738	3.6850e-01	10.5703	9.593660	0.000545	5.452116	1.847227	-0.043690
 739	3.6900e-01	10.5254	9.265983	0.000818	8.178174	2.770840	-0.065535
 740	3.6950e-01	10.4853	9.375209	-0.000273	-2.726058	-0.923613	0.021845
 741	3.7000e-01	10.4147	9.229574	0.000363	3.634744	1.231485	-0.029127
 742	3.7050e-01	10.3730	8.938306	0.000727	7.269488	2.462969	-0.058254
 743	3.7100e-01	10.3248	9.484434	-0.001363	-13.630290	-4.618067	0.109226
 744	3.7150e-01	10.3297	9.120349	-0.000909	-9.086860	-3.078712	-0.072817
 745	3.7200e-01	10.2639	8.756263	0.000909	9.086860	3.078712	-0.072817
 746	3.7250e-01	10.2174	8.574220	0.000454	4.543430	1.539356	-0.036409
 747	3.7300e-01	10.1821	8.100908	0.001181	11.812918	4.002325	-0.094662
 748	3.7350e-01	10.1660	8.537811	-0.001090	-10.904232	-3.694454	0.087381
 749	3.7400e-01	10.1436	8.574220	-0.000091	-0.908686	-0.307871	0.007282
 750	3.7450e-01	10.0762	7.918865	0.001636	16.356348	5.541681	-0.131071
 751	3.7500e-01	10.0361	8.028091	-0.000273	-2.726058	-0.923613	0.021845
 752	3.7550e-01	9.9799	7.882457	0.000363	3.634744	1.231485	-0.029127
 753	3.7600e-01	9.9318	7.882457	-0.000000	-0.000000	-0.000000	0.000000
 754	3.7650e-01	9.8901	7.591188	0.000727	7.269488	2.462969	-0.058254
 755	3.7700e-01	9.8564	7.591188	-0.000000	-0.000000	-0.000000	0.000000
 756	3.7750e-01	9.8099	7.409145	0.000454	4.543430	1.539356	-0.036409
 757	3.7800e-01	9.7698	6.863017	0.001363	13.630290	4.618067	-0.109226
 758	3.7850e-01	9.7457	7.190694	-0.000818	-8.178174	-2.770840	0.065535
 759	3.7900e-01	9.6960	6.935834	0.000636	6.360802	2.155098	-0.050972
 760	3.7950e-01	9.6463	6.972242	-0.000091	-0.908686	-0.307871	0.007282
 761	3.8000e-01	9.5917	6.462522	0.001272	12.721604	4.310196	-0.101944
 762	3.8050e-01	9.5741	7.117877	-0.001636	-16.356348	-5.541681	0.131071
 763	3.8100e-01	9.5420	6.644565	0.001181	11.812918	4.002325	-0.094662
 764	3.8150e-01	9.4987	6.353297	0.000727	7.269488	2.462969	-0.058254
 765	3.8200e-01	9.4521	6.353297	-0.000000	-0.000000	-0.000000	0.000000
 766	3.8250e-01	9.4489	5.770759	0.001454	14.538976	4.925939	-0.116507
 767	3.8300e-01	9.3944	5.879985	-0.000273	-2.726058	-0.923613	0.021845
 768	3.8350e-01	9.3447	5.697942	0.000454	4.543430	1.539356	-0.036409
 769	3.8400e-01	9.3110	5.770759	-0.000182	-1.817372	-0.615742	0.014563
 770	3.8450e-01	9.2709	5.297448	0.001181	11.812918	4.002325	-0.094662
 771	3.8500e-01	9.2163	5.333857	-0.000091	-0.908686	-0.307871	0.007282
 772	3.8550e-01	9.1698	5.443082	-0.000273	-2.726058	-0.923613	0.021845
 773	3.8600e-01	9.1361	5.333857	0.000273	2.726058	0.923613	-0.021845
 774	3.8650e-01	9.0928	5.078996	0.000636	6.360802	2.155098	-0.050972
 775	3.8700e-01	9.0463	5.224631	-0.000363	-3.634744	-1.231485	0.029127
 776	3.8750e-01	9.0062	5.078996	0.000363	3.634744	1.231485	-0.029127
 777	3.8800e-01	8.9725	4.532868	0.001363	13.630290	4.618067	-0.109226
 778	3.8850e-01	8.9436	4.423642	0.000273	2.726058	0.923613	-0.021845
 779	3.8900e-01	8.8987	4.423642	-0.000000	-0.000000	-0.000000	0.000000
 780	3.8950e-01	8.8810	4.423642	-0.000000	-0.000000	-0.000000	0.000000
 781	3.9000e-01	8.8121	4.496459	-0.000182	-1.817372	-0.615742	0.014563
 782	3.9050e-01	8.7912	4.278008	0.000545	5.452116	1.847227	-0.043690
 783	3.9100e-01	8.7671	4.278008	-0.000000	-0.000000	-0.000000	0.000000
 784	3.9150e-01	8.7014	3.913922	0.000909	9.086860	3.078712	-0.072817
 785	3.9200e-01	8.6580	3.695471	0.000545	5.452116	1.847227	-0.043690
 786	3.9250e-01	8.6131	3.331385	0.000909	9.086860	3.078712	-0.072817
 787	3.9300e-01	8.5762	3.404202	-0.000182	-1.817372	-0.615742	0.014563
 788	3.9350e-01	8.5393	3.003708	0.001000	9.995546	3.386583	-0.080099
 789	3.9400e-01	8.5008	3.477019	-0.001181	-11.812918	-4.002325	0.094662
 790	3.9450e-01	8.4687	2.639622	0.002090	20.899779	7.081037	-0.167479
 791	3.9500e-01	8.4142	2.858073	-0.000545	-5.452116	-1.847227	0.043690
 792	3.9550e-01	8.3821	2.712439	0.000363	3.634744	1.231485	-0.029127
 793	3.9600e-01	8.3597	3.040116	-0.000818	-8.178174	-2.770840	0.065535
 794	3.9650e-01	8.2923	2.457579	0.001454	14.538976	4.925939	-0.116507
 795	3.9700e-01	8.2634	2.603213	-0.000363	-3.634744	-1.231485	0.029127
 796	3.9750e-01	8.2185	1.947859	0.001636	16.356348	5.541681	-0.131071
 797	3.9800e-01	8.2040	2.202719	-0.000636	-6.360802	-2.155098	0.050972
 798	3.9850e-01	8.1543	1.547365	0.001636	16.356348	5.541681	-0.131071
 799	3.9900e-01	8.1158	1.838633	-0.000727	-7.269488	-2.462969	0.058254
 800	3.9950e-01	8.0805	1.802225	0.000091	0.908686	0.307871	-0.007282
 801	4.0000e-01	8.0067	1.656590	0.000363	3.634744	1.231485	-0.029127
 802	4.0050e-01	7.9730	1.328913	0.000818	8.178174	2.770840	-0.065535
 803	4.0100e-01	7.9377	1.401730	-0.000182	-1.817372	-0.615742	0.014563
 804	4.0150e-01	7.9089	1.328913	0.000182	1.817372	0.615742	-0.014563
 805	4.0200e-01	7.8736	1.146870	0.000454	4.543430	1.539356	-0.036409
 806	4.0250e-01	7.8174	0.928419	0.000545	5.452116	1.847227	-0.043690
 807	4.0300e-01	7.7468	0.782784	0.000363	3.634744	1.231485	-0.029127
 808	4.0350e-01	7.7164	0.819193	-0.000091	-0.908686	-0.307871	0.007282
 809	4.0400e-01	7.6987	0.892010	-0.000182	-1.817372	-0.615742	0.014563
 810	4.0450e-01	7.6602	0.236656	0.001636	16.356348	5.541681	-0.131071
 811	4.0500e-01	7.6217	0.273064	-0.000091	-0.908686	-0.307871	0.007282
 812	4.0550e-01	7.5704	0.418699	-0.000363	-3.634744	-1.231485	0.029127
 813	4.0600e-01	7.5319	-0.091021	0.001272	12.721604	4.310196	-0.101944
 814	4.0650e-01	7.5110	0.018204	-0.000273	-2.726058	-0.923613	0.021845
 815	4.0700e-01	7.4950	-0.527924	0.001363	13.630290	4.618067	-0.109226
 816	4.0750e-01	7.4452	-0.382290	-0.000363	-3.634744	-1.231485	0.029127
 817	4.0800e-01	7.4035	-0.637150	0.000636	6.360802	2.155098	-0.050972
 818	4.0850e-01	7.3281	-0.892010	0.000636	6.360802	2.155098	-0.050972
 819	4.0900e-01	7.3089	-1.146870	0.000636	6.360802	2.155098	-0.050972
 820	4.0950e-01	7.2592	-0.527924	-0.001545	-15.447662	-5.233810	0.123789
 821	4.1000e-01	7.2223	-1.328913	0.001999	19.991093	6.773166	-0.160198
 822	4.1050e-01	7.1629	-1.110462	-0.000545	-5.452116	-1.847227	0.043690
 823	4.1100e-01	7.1068	-1.183279	0.000182	1.817372	0.615742	-0.014563
 824	4.1150e-01	7.0987	-1.547365	0.000909	9.086860	3.078712	-0.072817
 825	4.1200e-01	7.0506	-1.911450	0.000909	9.086860	3.078712	-0.072817
 826	4.1250e-01	7.0378	-1.692999	-0.000545	-5.452116	-1.847227	0.043690
 827	4.1300e-01	6.9945	-2.093493	0.001000	9.995546	3.386583	-0.080099
 828	4.1350e-01	6.9640	-1.947859	-0.000363	-3.634744	-1.231485	0.029127
 829	4.1400e-01	6.9046	-2.530396	0.001454	14.538976	4.925939	-0.116507
 830	4.1450e-01	6.8806	-2.530396	-0.000000	-0.000000	-0.000000	0.000000
 831	4.1500e-01	6.8388	-2.748848	0.000545	5.452116	1.847227	-0.043690
 832	4.1550e-01	6.7891	-2.748848	-0.000000	-0.000000	-0.000000	0.000000
 833	4.1600e-01	6.7426	-2.894482	0.000363	3.634744	1.231485	-0.029127
 834	4.1650e-01	6.6977	-3.440611	0.001363	13.630290	4.618067	-0.109226
 835	4.1700e-01	6.6592	-2.821665	-0.001545	-15.447662	-5.233810	0.123789
 836	4.1750e-01	6.6062	-3.331385	0.001272	12.721604	4.310196	-0.101944
 837	4.1800e-01	6.5725	-3.331385	-0.000000	-0.000000	-0.000000	0.000000
 838	4.1850e-01	6.5340	-3.003708	-0.000818	-8.178174	-2.770840	0.065535
 839	4.1900e-01	6.5084	-4.059556	0.002635	26.351895	8.928264	-0.211170
 840	4.1950e-01	6.4843	-3.768288	-0.000727	-7.269488	-2.462969	0.058254
 841	4.2000e-01	6.4458	-3.841105	0.000182	1.817372	0.615742	-0.014563
 842	4.2050e-01	6.3816	-4.168782	0.000818	8.178174	2.770840	-0.065535
 843	4.2100e-01	6.3608	-4.387234	0.000545	5.452116	1.847227	-0.043690
 844	4.2150e-01	6.3287	-4.678502	0.000727	7.269488	2.462969	-0.058254
 845	4.2200e-01	6.2709	-4.241599	-0.001090	-10.904232	-3.694454	0.087381
 846	4.2250e-01	6.2244	-5.006179	0.001908	19.082407	6.465294	-0.152916
 847	4.2300e-01	6.2100	-4.933362	-0.000182	-1.817372	-0.615742	0.014563
 848	4.2350e-01	6.1346	-5.042588	0.000273	2.726058	0.923613	-0.021845
 849	4.2400e-01	6.1137	-5.006179	-0.000091	-0.908686	-0.307871	0.007282
 850	4.2450e-01	6.0833	-5.115405	0.000273	2.726058	0.923613	-0.021845
 851	4.2500e-01	6.0399	-5.261039	0.000363	3.634744	1.231485	-0.029127
 852	4.2550e-01	5.9742	-5.078996	-0.000454	-4.543430	-1.539356	0.036409
 853	4.2600e-01	5.9597	-5.661534	0.001454	14.538976	4.925939	-0.116507
 854	4.2650e-01	5.9276	-6.171254	0.001272	12.721604	4.310196	-0.101944
 855	4.2700e-01	5.8875	-6.062028	-0.000273	-2.726058	-0.923613	0.021845
 856	4.2750e-01	5.8266	-5.770759	-0.000727	-7.269488	-2.462969	0.058254
 857	4.2800e-01	5.7752	-6.134845	0.000909	9.086860	3.078712	-0.072817
 858	4.2850e-01	5.7351	-6.171254	0.000091	0.908686	0.307871	-0.007282
 859	4.2900e-01	5.6918	-6.717382	0.001363	13.630290	4.618067	-0.109226
 860	4.2950e-01	5.6501	-6.680974	-0.000091	-0.908686	-0.307871	0.007282
 861	4.3000e-01	5.6373	-6.717382	0.000091	0.908686	0.307871	-0.007282
 862	4.3050e-01	5.5891	-7.045060	0.000818	8.178174	2.770840	-0.065535
 863	4.3100e-01	5.5619	-7.081468	0.000091	0.908686	0.307871	-0.007282
 864	4.3150e-01	5.5218	-7.445554	0.000909	9.086860	3.078712	-0.072817
 865	4.3200e-01	5.4640	-7.955274	0.001272	12.721604	4.310196	-0.101944
 866	4.3250e-01	5.4335	-6.972242	-0.002453	-24.534523	-8.312521	0.196606
 867	4.3300e-01	5.4111	-8.173726	0.002999	29.986639	10.159748	-0.240297
 868	4.3350e-01	5.3790	-7.955274	-0.000545	-5.452116	-1.847227	0.043690
 869	4.3400e-01	5.3261	-7.882457	-0.000182	-1.817372	-0.615742	0.014563
 870	4.3450e-01	5.2876	-8.282951	0.001000	9.995546	3.386583	-0.080099
 871	4.3500e-01	5.2282	-7.955274	-0.000818	-8.178174	-2.770840	0.065535
 872	4.3550e-01	5.1865	-8.756263	0.001999	19.991093	6.773166	-0.160198
 873	4.3600e-01	5.1512	-8.647037	-0.000273	-2.726058	-0.923613	0.021845
 874	4.3650e-01	5.0934	-8.464994	-0.000454	-4.543430	-1.539356	0.036409
 875	4.3700e-01	5.0598	-9.011123	0.001363	13.630290	4.618067	-0.109226
 876	4.3750e-01	5.0293	-8.756263	-0.000636	-6.360802	-2.155098	0.050972
 877	4.3800e-01	4.9844	-9.375209	0.001545	15.447662	5.233810	-0.123789
 878	4.3850e-01	4.9507	-9.193166	-0.000454	-4.543430	-1.539356	0.036409
 879	4.3900e-01	4.9122	-9.375209	0.000454	4.543430	1.539356	-0.036409
 880	4.3950e-01	4.8705	-9.884929	0.001272	12.721604	4.310196	-0.101944
 881	4.4000e-01	4.8127	-9.994154	0.000273	2.726058	0.923613	-0.021845
 882	4.4050e-01	4.7790	-10.212606	0.000545	5.452116	1.847227	-0.043690
 883	4.4100e-01	4.7710	-10.139789	-0.000182	-1.817372	-0.615742	0.014563
 884	4.4150e-01	4.7277	-10.467466	0.000818	8.178174	2.770840	-0.065535
 885	4.4200e-01	4.6587	-10.358240	-0.000273	-2.726058	-0.923613	0.021845
 886	4.4250e-01	4.6314	-10.503874	0.000363	3.634744	1.231485	-0.029127
 887	4.4300e-01	4.5961	-10.722326	0.000545	5.452116	1.847227	-0.043690
 888	4.4350e-01	4.5400	-10.831552	0.000273	2.726058	0.923613	-0.021845
 889	4.4400e-01	4.5095	-11.122820	0.000727	7.269488	2.462969	-0.058254
 890	4.4450e-01	4.4838	-11.414089	0.000727	7.269488	2.462969	-0.058254
 891	4.4500e-01	4.4309	-11.741766	0.000818	8.178174	2.770840	-0.065535
 892	4.4550e-01	4.3571	-11.159229	-0.001454	-14.538976	-4.925939	0.116507
 893	4.4600e-01	4.3314	-11.450497	0.000727	7.269488	2.462969	-0.058254
 894	4.4650e-01	4.2945	-11.741766	0.000727	7.269488	2.462969	-0.058254
 895	4.4700e-01	4.2368	-11.887400	0.000363	3.634744	1.231485	-0.029127
 896	4.4750e-01	4.2255	-11.923809	0.000091	0.908686	0.307871	-0.007282
 897	4.4800e-01	4.1822	-12.469938	0.001363	13.630290	4.618067	-0.109226
 898	4.4850e-01	4.1566	-12.651980	0.000454	4.543430	1.539356	-0.036409
 899	4.4900e-01	4.1068	-12.579163	-0.000182	-1.817372	-0.615742	0.014563
 900	4.4950e-01	4.0715	-12.943249	0.000909	9.086860	3.078712	-0.072817
 901	4.5000e-01	4.0138	-12.870432	-0.000182	-1.817372	-0.615742	0.014563
 902	4.5050e-01	3.9849	-13.343743	0.001181	11.812918	4.002325	-0.094662
 903	4.5100e-01	3.9336	-13.161701	-0.000454	-4.543430	-1.539356	0.036409
 904	4.5150e-01	3.8935	-12.943249	-0.000545	-5.452116	-1.847227	0.043690
 905	4.5200e-01	3.8614	-13.234518	0.000727	7.269488	2.462969	-0.058254
 906	4.5250e-01	3.8261	-13.489378	0.000636	6.360802	2.155098	-0.050972
 907	4.5300e-01	3.7796	-13.489378	-0.000000	-0.000000	-0.000000	0.000000
 908	4.5350e-01	3.7603	-14.144732	0.001636	16.356348	5.541681	-0.131071
 909	4.5400e-01	3.7010	-13.853464	-0.000727	-7.269488	-2.462969	0.058254
 910	4.5450e-01	3.6657	-14.472409	0.001545	15.447662	5.233810	-0.123789
 911	4.5500e-01	3.6288	-14.290366	-0.000454	-4.543430	-1.539356	0.036409
 912	4.5550e-01	3.6143	-14.618044	0.000818	8.178174	2.770840	-0.065535
 913	4.5600e-01	3.5662	-14.800087	0.000454	4.543430	1.539356	-0.036409
 914	4.5650e-01	3.5213	-14.800087	-0.000000	-0.000000	-0.000000	0.000000
 915	4.5700e-01	3.4716	-15.309807	0.001272	12.721604	4.310196	-0.101944
 916	4.5750e-01	3.4218	-15.419032	0.000273	2.726058	0.923613	-0.021845
 917	4.5800e-01	3.3817	-15.309807	-0.000273	-2.726058	-0.923613	0.021845
 918	4.5850e-01	3.3336	-15.309807	-0.000000	-0.000000	-0.000000	0.000000
 919	4.5900e-01	3.3031	-15.455441	0.000363	3.634744	1.231485	-0.029127
 920	4.5950e-01	3.2630	-15.783118	0.000818	8.178174	2.770840	-0.065535
 921	4.6000e-01	3.2165	-16.001570	0.000545	5.452116	1.847227	-0.043690
 922	4.6050e-01	3.1892	-15.965161	-0.000091	-0.908686	-0.307871	0.007282
 923	4.6100e-01	3.1411	-16.183612	0.000545	5.452116	1.847227	-0.043690
 924	4.6150e-01	3.1122	-16.656924	0.001181	11.812918	4.002325	-0.094662
 925	4.6200e-01	3.0593	-16.656924	-0.000000	-0.000000	-0.000000	0.000000
 926	4.6250e-01	3.0240	-16.875375	0.000545	5.452116	1.847227	-0.043690
 927	4.6300e-01	2.9791	-17.093827	0.000545	5.452116	1.847227	-0.043690
 928	4.6350e-01	2.9550	-17.130235	0.000091	0.908686	0.307871	-0.007282
 929	4.6400e-01	2.9181	-17.203053	0.000182	1.817372	0.615742	-0.014563
 930	4.6450e-01	2.8812	-17.749181	0.001363	13.630290	4.618067	-0.109226
 931	4.6500e-01	2.8459	-17.457913	-0.000727	-7.269488	-2.462969	0.058254
 932	4.6550e-01	2.7801	-17.639956	0.000454	4.543430	1.539356	-0.036409
 933	4.6600e-01	2.7448	-17.821998	0.000454	4.543430	1.539356	-0.036409
 934	4.6650e-01	2.7095	-18.076858	0.000636	6.360802	2.155098	-0.050972
 935	4.6700e-01	2.6486	-18.258901	0.000454	4.543430	1.539356	-0.036409
 936	4.6750e-01	2.6358	-18.768621	0.001272	12.721604	4.310196	-0.101944
 937	4.6800e-01	2.5764	-18.222493	-0.001363	-13.630290	-4.618067	0.109226
 938	4.6850e-01	2.5684	-18.914256	0.001727	17.265034	5.849552	-0.138353
 939	4.6900e-01	2.4962	-18.950664	0.000091	0.908686	0.307871	-0.007282
 940	4.6950e-01	2.4481	-18.877847	-0.000182	-1.817372	-0.615742	0.014563
 941	4.7000e-01	2.4336	-19.606019	0.001817	18.173720	6.157423	-0.145634
 942	4.7050e-01	2.3967	-19.132707	-0.001181	-11.812918	-4.002325	0.094662
 943	4.7100e-01	2.3566	-19.824470	0.001727	17.265034	5.849552	-0.138353
 944	4.7150e-01	2.3229	-19.897287	0.000182	1.817372	0.615742	-0.014563
 945	4.7200e-01	2.2668	-19.751653	-0.000363	-3.634744	-1.231485	0.029127
 946	4.7250e-01	2.2315	-20.224965	0.001181	11.812918	4.002325	-0.094662
 947	4.7300e-01	2.1769	-20.261373	0.000091	0.908686	0.307871	-0.007282
 948	4.7350e-01	2.1529	-20.625459	0.000909	9.086860	3.078712	-0.072817
 949	4.7400e-01	2.1080	-20.807502	0.000454	4.543430	1.539356	-0.036409
 950	4.7450e-01	2.0903	-20.880319	0.000182	1.817372	0.615742	-0.014563
 951	4.7500e-01	2.0229	-20.880319	-0.000000	-0.000000	-0.000000	0.000000
 952	4.7550e-01	1.9636	-20.953136	0.000182	1.817372	0.615742	-0.014563
 953	4.7600e-01	1.9235	-20.916727	-0.000091	-0.908686	-0.307871	0.007282
 954	4.7650e-01	1.9090	-21.280813	0.000909	9.086860	3.078712	-0.072817
 955	4.7700e-01	1.8545	-21.681308	0.001000	9.995546	3.386583	-0.080099
 956	4.7750e-01	1.8304	-21.790533	0.000273	2.726058	0.923613	-0.021845
 957	4.7800e-01	1.7743	-22.118211	0.000818	8.178174	2.770840	-0.065535
 958	4.7850e-01	1.7598	-22.081802	-0.000091	-0.908686	-0.307871	0.007282
 959	4.7900e-01	1.7181	-22.518705	0.001090	10.904232	3.694454	-0.087381
 960	4.7950e-01	1.6652	-22.700748	0.000454	4.543430	1.539356	-0.036409
 961	4.8000e-01	1.6363	-22.482296	-0.000545	-5.452116	-1.847227	0.043690
 962	4.8050e-01	1.6106	-23.028425	0.001363	13.630290	4.618067	-0.109226
 963	4.8100e-01	1.5449	-22.955608	-0.000182	-1.817372	-0.615742	0.014563
 964	4.8150e-01	1.5080	-23.137651	0.000454	4.543430	1.539356	-0.036409
 965	4.8200e-01	1.4422	-23.319694	0.000454	4.543430	1.539356	-0.036409
 966	4.8250e-01	1.4486	-23.428919	-0.000273	-2.726058	-0.923613	-0.021845
 967	4.8300e-01	1.3620	-23.246876	-0.000454	-4.543430	-1.539356	0.036409
 968	4.8350e-01	1.3492	-24.266317	0.002544	25.443209	8.620392	-0.203888
 969	4.8400e-01	1.3139	-23.574554	-0.001727	-17.265034	-5.849552	0.138353
 970	4.8450e-01	1.2722	-24.302725	0.001817	18.173720	6.157423	-0.145634
 971	4.8500e-01	1.2112	-24.193499	-0.000273	-2.726058	-0.923613	0.021845
 972	4.8550e-01	1.1839	-24.448359	0.000636	6.360802	2.155098	-0.050972
 973	4.8600e-01	1.1422	-24.703219	0.000636	6.360802	2.155098	-0.050972
 974	4.8650e-01	1.0877	-24.776037	0.000182	1.817372	0.615742	-0.014563
 975	4.8700e-01	1.0363	-24.848854	0.000182	1.817372	0.615742	-0.014563
 976	4.8750e-01	1.0059	-24.848854	-0.000000	-0.000000	-0.000000	0.000000
 977	4.8800e-01	0.9834	-25.467800	0.001545	15.447662	5.233810	-0.123789
 978	4.8850e-01	0.9385	-25.831885	0.000909	9.086860	3.078712	-0.072817
 979	4.8900e-01	0.9224	-25.358574	-0.001181	-11.812918	-4.002325	0.094662
 980	4.8950e-01	0.8615	-26.013928	0.001636	16.356348	5.541681	-0.131071
 981	4.9000e-01	0.8198	-26.050337	0.000091	0.908686	0.307871	-0.007282
 982	4.9050e-01	0.7797	-26.596465	0.001363	13.630290	4.618067	-0.109226
 983	4.9100e-01	0.7347	-26.086745	-0.001272	-12.721604	-4.310196	0.101944
 984	4.9150e-01	0.6850	-26.596465	0.001272	12.721604	4.310196	-0.101944
 985	4.9200e-01	0.6433	-26.705691	0.000273	2.726058	0.923613	-0.021845
 986	4.9250e-01	0.6064	-26.960551	0.000636	6.360802	2.155098	-0.050972
 987	4.9300e-01	0.5807	-27.433863	0.001181	11.812918	4.002325	-0.094662
 988	4.9350e-01	0.5551	-27.251820	-0.000454	-4.543430	-1.539356	0.036409
 989	4.9400e-01	0.5053	-27.470271	0.000545	5.452116	1.847227	-0.043690
 990	4.9450e-01	0.4636	-27.251820	-0.000545	-5.452116	-1.847227	0.043690
 991	4.9500e-01	0.4331	-27.834357	0.001454	14.538976	4.925939	-0.116507
 992	4.9550e-01	0.3834	-27.797949	-0.000091	-0.908686	-0.307871	0.007282
 993	4.9600e-01	0.3561	-28.453303	0.001636	16.356348	5.541681	-0.131071
 994	4.9650e-01	0.3032	-28.380486	-0.000182	-1.817372	-0.615742	0.014563
 995	4.9700e-01	0.2711	-28.817389	0.001090	10.904232	3.694454	-0.087381
 996	4.9750e-01	0.1973	-28.416894	-0.001000	-9.995546	-3.386583	0.080099
 997	4.9800e-01	0.1604	-29.290700	0.002181	21.808465	7.388908	-0.174761
 998	4.9850e-01	0.1251	-28.890206	-0.001000	-9.995546	-3.386583	0.080099
 999	4.9900e-01	0.1155	-29.327109	0.001090	10.904232	3.694454	-0.087381
1000	4.9950e-01	0.0658	-29.509152	0.000454	4.543430	1.539356	-0.036409
1001	5.0000e-01	0.0754	-29.909646	0.000454	4.543430	1.539356	-0.080099

PMax (uC/cm2):	6.85e+01
Pr (uC/cm2):	4.26e+00
-Pr (uC/cm2):	0.00e+00
PLoss (uC/cm2):	0.00e+00
C (Max-Eff) (nF):	3.42e-01
K (Eff):	1.16e+03
Vert. (+/-Pr) Shift (uC/cm2):	2.13e+00
Offset (uC/cm2):	3.42e+01

A (Loop Area - uC/cm2·Volts):	1.66e-01



Hysteresis Version: 5.48.1 - Radiant Technologies, Inc., 1999 - 9/12/24

