»»»»»»»»»»»»»»»»»»»»»»»»»»»»»»»»»»»» Hysteresis ««««««««««««««««««««««««««««««««««««
»»»  Executed Version:	5.48.1
»»»  Vision Version:	5.48.4 (R)
»»»  Vision Compiled:	9/18/24
»»»  Driver Version:	5.47.0
»»»  Windows Version:	Windows 8 or 8.1
»»»  Processor Information:	x86 (AMD or Intel) - 32 Processors
»»»  Tester Name:	PMF21124-494 (100V)
»»»  Tester S/N:	PMF21124-494
»»»  Internal Amp Type:	100V RevK 270k
»»»  Internal Amp S/N:	iAB2-596/K     
»»»  Execution Count:	1
»»»»»»»»»»»»»»»»»»»»»»»»»»»»»»»»»»»»»»»»»»««««««««««««««««««««««««««««««««««««««««««

Stored:	10/10/2025 - 16:25:14
Configured:	10/10/25 10:37:25 AM
Executed:	10/10/25 04:24:44 PM

»»»»»»»»»»»»»»»»»»»»»»»»»»»»»»»»»»» Sample Info ««««««««««««««««««««««««««««««««««««
Sample Name:	Int. Ref. Ferroelectric
Lot Name:	N/A
Wafer Name:	N/A
Die Row/Column:	0/0
Capacitor Number:	0
Sample Area (cm2):	1.00e-04
Sample Thickness (microns):	3.00e-01

Amplifier:	Internal

»»»»»»»»»»»»»»»»»»»»»»»»»»»»»»»»»»» Tester Info «««««««««««««««««««««««««««««««««««
Tester Name:	PMF21124-494 (100V)
Tester Serial Number:	PMF21124-494
Return Signal Amp. Level:	0.02 [Index: 2]

»»»»»»»»»»»»»»»»»»»»»»»»»»»»»»»» Hysteresis Info ««««««««««««««««««««««««««««««««««
Task Name:	Hyst-170
Volts:	20.00
Field:	666.67 (kV/cm)
DCBias:	0.00
DCField:	0.00 (kV/cm)
Hysteresis Period (ms):	5.00e-01
Preset:	Enabled
Preset Delay (ms):	1.00e+03
Profile:	Standard Monopolar

»»»»»»»»»»»»»»»»»»»»»»»»»»»»»»»»»»»»»» Data «««««««««««««««««««««««««««««««««««««««
Points:	1001

Valid Data

Point	Time (ms)	Drive Voltage	Measured Polarization (uC/cm2)	Capacitance (uF)	Normalized Capacitance (uF/cm2)	Dielectric Constant	Instantaneous Current (mA)
   1	0.0000e+00	0.0401	-31.274968	-0.000449	-4.486096	-1.519930	-0.036409
   2	5.0000e-04	0.0995	-31.457010	-0.000449	-4.486096	-1.519930	-0.036409
   3	1.0000e-03	0.1315	-31.529828	-0.000179	-1.794438	-0.607972	-0.014563
   4	1.5000e-03	0.1604	-31.056516	0.001166	11.663849	3.951819	0.094662
   5	2.0000e-03	0.2069	-31.165742	-0.000269	-2.691657	-0.911958	-0.021845
   6	2.5000e-03	0.2422	-30.583205	0.001436	14.355506	4.863777	0.116507
   7	3.0000e-03	0.2888	-30.874473	-0.000718	-7.177753	-2.431889	-0.058254
   8	3.5000e-03	0.3160	-30.437570	0.001077	10.766630	3.647833	0.087381
   9	4.0000e-03	0.3706	-30.219119	0.000538	5.383315	1.823916	0.043690
  10	4.5000e-03	0.4027	-30.401162	-0.000449	-4.486096	-1.519930	-0.036409
  11	5.0000e-03	0.4267	-30.182710	0.000538	5.383315	1.823916	0.043690
  12	5.5000e-03	0.4925	-30.073485	0.000269	2.691657	0.911958	0.021845
  13	6.0000e-03	0.5166	-29.927850	0.000359	3.588877	1.215944	0.029127
  14	6.5000e-03	0.5599	-29.600173	0.000807	8.074972	2.735875	0.065535
  15	7.0000e-03	0.6096	-29.563764	0.000090	0.897219	0.303986	0.007282
  16	7.5000e-03	0.6513	-29.454539	0.000269	2.691657	0.911958	0.021845
  17	8.0000e-03	0.6962	-29.345313	0.000269	2.691657	0.911958	0.021845
  18	8.5000e-03	0.7444	-28.872002	0.001166	11.663849	3.951819	0.094662
  19	9.0000e-03	0.7460	-28.944819	-0.000179	-1.794438	-0.607972	-0.014563
  20	9.5000e-03	0.8021	-28.908410	0.000090	0.897219	0.303986	0.007282
  21	1.0000e-02	0.8583	-28.289464	0.001525	15.252725	5.167763	0.123789
  22	1.0500e-02	0.8727	-28.398690	-0.000269	-2.691657	-0.911958	-0.021845
  23	1.1000e-02	0.9577	-28.071013	0.000807	8.074972	2.735875	0.065535
  24	1.1500e-02	0.9545	-27.998196	-0.000179	-1.794438	-0.607972	0.014563
  25	1.2000e-02	1.0139	-27.816153	0.000449	4.486096	1.519930	0.036409
  26	1.2500e-02	1.0652	-27.925379	-0.000269	-2.691657	-0.911958	-0.021845
  27	1.3000e-02	1.0716	-27.743336	0.000449	4.486096	1.519930	0.036409
  28	1.3500e-02	1.1198	-27.452067	0.000718	7.177753	2.431889	0.058254
  29	1.4000e-02	1.1791	-27.306433	0.000359	3.588877	1.215944	0.029127
  30	1.4500e-02	1.2032	-27.342841	-0.000090	-0.897219	-0.303986	-0.007282
  31	1.5000e-02	1.2192	-27.124390	0.000538	5.383315	1.823916	0.043690
  32	1.5500e-02	1.2770	-26.942347	0.000449	4.486096	1.519930	0.036409
  33	1.6000e-02	1.3042	-26.760304	0.000449	4.486096	1.519930	0.036409
  34	1.6500e-02	1.3540	-26.614670	0.000359	3.588877	1.215944	0.029127
  35	1.7000e-02	1.3796	-26.323401	0.000718	7.177753	2.431889	0.058254
  36	1.7500e-02	1.4647	-25.959315	0.000897	8.972191	3.039861	0.072817
  37	1.8000e-02	1.4582	-26.032133	0.000179	1.794438	0.607972	-0.014563
  38	1.8500e-02	1.5160	-26.104950	-0.000179	-1.794438	-0.607972	-0.014563
  39	1.9000e-02	1.5898	-25.777272	0.000807	8.074972	2.735875	0.065535
  40	1.9500e-02	1.5978	-25.668047	0.000269	2.691657	0.911958	0.021845
  41	2.0000e-02	1.6331	-25.522412	0.000359	3.588877	1.215944	0.029127
  42	2.0500e-02	1.6989	-25.668047	-0.000359	-3.588877	-1.215944	-0.029127
  43	2.1000e-02	1.7454	-25.121918	0.001346	13.458287	4.559791	0.109226
  44	2.1500e-02	1.7566	-24.976284	0.000359	3.588877	1.215944	0.029127
  45	2.2000e-02	1.7935	-25.231144	-0.000628	-6.280534	-2.127903	-0.050972
  46	2.2500e-02	1.8224	-24.794241	0.001077	10.766630	3.647833	0.087381
  47	2.3000e-02	1.8770	-24.284521	0.001256	12.561068	4.255805	0.101944
  48	2.3500e-02	1.9138	-24.393747	-0.000269	-2.691657	-0.911958	-0.021845
  49	2.4000e-02	1.9572	-24.211704	0.000449	4.486096	1.519930	0.036409
  50	2.4500e-02	2.0101	-24.175295	0.000090	0.897219	0.303986	0.007282
  51	2.5000e-02	2.0566	-24.066069	0.000269	2.691657	0.911958	0.021845
  52	2.5500e-02	2.0855	-23.556349	0.001256	12.561068	4.255805	0.101944
  53	2.6000e-02	2.1208	-23.774801	-0.000538	-5.383315	-1.823916	-0.043690
  54	2.6500e-02	2.1625	-23.374306	0.000987	9.869411	3.343847	0.080099
  55	2.7000e-02	2.2010	-23.301489	0.000179	1.794438	0.607972	0.014563
  56	2.7500e-02	2.2427	-23.265081	0.000090	0.897219	0.303986	0.007282
  57	2.8000e-02	2.2796	-23.119446	0.000359	3.588877	1.215944	0.029127
  58	2.8500e-02	2.3229	-22.973812	0.000359	3.588877	1.215944	0.029127
  59	2.9000e-02	2.3743	-22.427683	0.001346	13.458287	4.559791	0.109226
  60	2.9500e-02	2.4449	-22.464092	-0.000090	-0.897219	-0.303986	-0.007282
  61	3.0000e-02	2.4368	-22.573318	0.000269	2.691657	0.911958	-0.021845
  62	3.0500e-02	2.4962	-22.391275	0.000449	4.486096	1.519930	0.036409
  63	3.1000e-02	2.5315	-22.172823	0.000538	5.383315	1.823916	0.043690
  64	3.1500e-02	2.5491	-22.100006	0.000179	1.794438	0.607972	0.014563
  65	3.2000e-02	2.6021	-21.772329	0.000807	8.074972	2.735875	0.065535
  66	3.2500e-02	2.6149	-21.735920	0.000090	0.897219	0.303986	0.007282
  67	3.3000e-02	2.6807	-21.517469	0.000538	5.383315	1.823916	0.043690
  68	3.3500e-02	2.7464	-21.007749	0.001256	12.561068	4.255805	0.101944
  69	3.4000e-02	2.7609	-21.116975	-0.000269	-2.691657	-0.911958	-0.021845
  70	3.4500e-02	2.7946	-20.971340	0.000359	3.588877	1.215944	0.029127
  71	3.5000e-02	2.8443	-20.752889	0.000538	5.383315	1.823916	0.043690
  72	3.5500e-02	2.9053	-21.007749	-0.000628	-6.280534	-2.127903	-0.050972
  73	3.6000e-02	2.9229	-20.716480	0.000718	7.177753	2.431889	0.058254
  74	3.6500e-02	2.9550	-20.607255	0.000269	2.691657	0.911958	0.021845
  75	3.7000e-02	3.0031	-20.425212	0.000449	4.486096	1.519930	0.036409
  76	3.7500e-02	3.0432	-20.133943	0.000718	7.177753	2.431889	0.058254
  77	3.8000e-02	3.0865	-20.061126	0.000179	1.794438	0.607972	0.014563
  78	3.8500e-02	3.1475	-19.769857	0.000718	7.177753	2.431889	0.058254
  79	3.9000e-02	3.1700	-19.660632	0.000269	2.691657	0.911958	0.021845
  80	3.9500e-02	3.1764	-19.624223	0.000090	0.897219	0.303986	0.007282
  81	4.0000e-02	3.2454	-19.587814	0.000090	0.897219	0.303986	0.007282
  82	4.0500e-02	3.2694	-19.260137	0.000807	8.074972	2.735875	0.065535
  83	4.1000e-02	3.3400	-19.114503	0.000359	3.588877	1.215944	0.029127
  84	4.1500e-02	3.3753	-18.677600	0.001077	10.766630	3.647833	0.087381
  85	4.2000e-02	3.4218	-19.005277	-0.000807	-8.074972	-2.735875	-0.065535
  86	4.2500e-02	3.4459	-18.677600	0.000807	8.074972	2.735875	0.065535
  87	4.3000e-02	3.5004	-18.568374	0.000269	2.691657	0.911958	0.021845
  88	4.3500e-02	3.5229	-18.422740	0.000359	3.588877	1.215944	0.029127
  89	4.4000e-02	3.5774	-18.313514	0.000269	2.691657	0.911958	0.021845
  90	4.4500e-02	3.6063	-18.495557	-0.000449	-4.486096	-1.519930	-0.036409
  91	4.5000e-02	3.6368	-17.294074	0.002961	29.608232	10.031540	0.240297
  92	4.5500e-02	3.6512	-17.730977	-0.001077	-10.766630	-3.647833	-0.087381
  93	4.6000e-02	3.7475	-17.512526	0.000538	5.383315	1.823916	0.043690
  94	4.6500e-02	3.7699	-17.585343	-0.000179	-1.794438	-0.607972	-0.014563
  95	4.7000e-02	3.7780	-17.476117	0.000269	2.691657	0.911958	0.021845
  96	4.7500e-02	3.8421	-17.585343	-0.000269	-2.691657	-0.911958	-0.021845
  97	4.8000e-02	3.8967	-17.257665	0.000807	8.074972	2.735875	0.065535
  98	4.8500e-02	3.9368	-16.857171	0.000987	9.869411	3.343847	0.080099
  99	4.9000e-02	3.9753	-16.966397	-0.000269	-2.691657	-0.911958	-0.021845
 100	4.9500e-02	4.0010	-16.565903	0.000987	9.869411	3.343847	0.080099
 101	5.0000e-02	4.0346	-16.602311	-0.000090	-0.897219	-0.303986	-0.007282
 102	5.0500e-02	4.0972	-16.493085	0.000269	2.691657	0.911958	0.021845
 103	5.1000e-02	4.1213	-16.347451	0.000359	3.588877	1.215944	0.029127
 104	5.1500e-02	4.1566	-15.983365	0.000897	8.972191	3.039861	0.072817
 105	5.2000e-02	4.2111	-16.165408	-0.000449	-4.486096	-1.519930	-0.036409
 106	5.2500e-02	4.2657	-15.582871	0.001436	14.355506	4.863777	0.116507
 107	5.3000e-02	4.2929	-15.728505	-0.000359	-3.588877	-1.215944	-0.029127
 108	5.3500e-02	4.3298	-15.510054	0.000538	5.383315	1.823916	0.043690
 109	5.4000e-02	4.3346	-15.473645	0.000090	0.897219	0.303986	0.007282
 110	5.4500e-02	4.3908	-14.963925	0.001256	12.561068	4.255805	0.101944
 111	5.5000e-02	4.4582	-15.182377	-0.000538	-5.383315	-1.823916	-0.043690
 112	5.5500e-02	4.4886	-14.745474	0.001077	10.766630	3.647833	0.087381
 113	5.6000e-02	4.5304	-14.854699	-0.000269	-2.691657	-0.911958	-0.021845
 114	5.6500e-02	4.5624	-14.454205	0.000987	9.869411	3.343847	0.080099
 115	5.7000e-02	4.5993	-14.563431	-0.000269	-2.691657	-0.911958	-0.021845
 116	5.7500e-02	4.6523	-14.490614	0.000179	1.794438	0.607972	0.014563
 117	5.8000e-02	4.6860	-14.017302	0.001166	11.663849	3.951819	0.094662
 118	5.8500e-02	4.7036	-14.090119	-0.000179	-1.794438	-0.607972	-0.014563
 119	5.9000e-02	4.7662	-14.126528	-0.000090	-0.897219	-0.303986	-0.007282
 120	5.9500e-02	4.7726	-13.726034	0.000987	9.869411	3.343847	0.080099
 121	6.0000e-02	4.8368	-13.835259	-0.000269	-2.691657	-0.911958	-0.021845
 122	6.0500e-02	4.8833	-13.471173	0.000897	8.972191	3.039861	0.072817
 123	6.1000e-02	4.9009	-13.653216	-0.000449	-4.486096	-1.519930	-0.036409
 124	6.1500e-02	4.9507	-12.925045	0.001794	17.944383	6.079721	0.145634
 125	6.2000e-02	4.9924	-12.888636	0.000090	0.897219	0.303986	0.007282
 126	6.2500e-02	5.0437	-12.925045	-0.000090	-0.897219	-0.303986	-0.007282
 127	6.3000e-02	5.0790	-12.488142	0.001077	10.766630	3.647833	0.087381
 128	6.3500e-02	5.1400	-12.597368	-0.000269	-2.691657	-0.911958	-0.021845
 129	6.4000e-02	5.1769	-12.415325	0.000449	4.486096	1.519930	0.036409
 130	6.4500e-02	5.2122	-12.087648	0.000807	8.074972	2.735875	0.065535
 131	6.5000e-02	5.2490	-12.087648	0.000000	0.000000	0.000000	0.000000
 132	6.5500e-02	5.2924	-11.978422	0.000269	2.691657	0.911958	0.021845
 133	6.6000e-02	5.3325	-11.905605	0.000179	1.794438	0.607972	0.014563
 134	6.6500e-02	5.3565	-11.687153	0.000538	5.383315	1.823916	0.043690
 135	6.7000e-02	5.3950	-11.650745	0.000090	0.897219	0.303986	0.007282
 136	6.7500e-02	5.4432	-11.468702	0.000449	4.486096	1.519930	0.036409
 137	6.8000e-02	5.4833	-11.250250	0.000538	5.383315	1.823916	0.043690
 138	6.8500e-02	5.5202	-11.395885	-0.000359	-3.588877	-1.215944	-0.029127
 139	6.9000e-02	5.5827	-10.958982	0.001077	10.766630	3.647833	0.087381
 140	6.9500e-02	5.5747	-10.594896	-0.000897	-8.972191	-3.039861	0.072817
 141	7.0000e-02	5.6244	-10.958982	-0.000897	-8.972191	-3.039861	-0.072817
 142	7.0500e-02	5.6501	-10.667713	0.000718	7.177753	2.431889	0.058254
 143	7.1000e-02	5.7030	-10.267219	0.000987	9.869411	3.343847	0.080099
 144	7.1500e-02	5.7624	-10.267219	0.000000	0.000000	0.000000	0.000000
 145	7.2000e-02	5.8169	-10.048767	0.000538	5.383315	1.823916	0.043690
 146	7.2500e-02	5.8490	-9.757499	0.000718	7.177753	2.431889	0.058254
 147	7.3000e-02	5.9036	-9.975950	-0.000538	-5.383315	-1.823916	-0.043690
 148	7.3500e-02	5.9116	-9.575456	0.000987	9.869411	3.343847	0.080099
 149	7.4000e-02	5.9517	-9.939542	-0.000897	-8.972191	-3.039861	-0.072817
 150	7.4500e-02	5.9982	-9.357004	0.001436	14.355506	4.863777	0.116507
 151	7.5000e-02	6.0447	-9.575456	-0.000538	-5.383315	-1.823916	-0.043690
 152	7.5500e-02	6.0913	-9.320596	0.000628	6.280534	2.127903	0.050972
 153	7.6000e-02	6.1218	-9.357004	-0.000090	-0.897219	-0.303986	-0.007282
 154	7.6500e-02	6.1747	-8.992919	0.000897	8.972191	3.039861	0.072817
 155	7.7000e-02	6.2004	-8.519607	0.001166	11.663849	3.951819	0.094662
 156	7.7500e-02	6.2308	-8.519607	0.000000	0.000000	0.000000	0.000000
 157	7.8000e-02	6.3046	-8.410381	0.000269	2.691657	0.911958	0.021845
 158	7.8500e-02	6.3207	-8.446790	-0.000090	-0.897219	-0.303986	-0.007282
 159	7.9000e-02	6.3592	-8.155521	0.000718	7.177753	2.431889	0.058254
 160	7.9500e-02	6.3993	-8.228338	-0.000179	-1.794438	-0.607972	-0.014563
 161	8.0000e-02	6.4426	-7.937070	0.000718	7.177753	2.431889	0.058254
 162	8.0500e-02	6.4891	-7.827844	0.000269	2.691657	0.911958	0.021845
 163	8.1000e-02	6.4506	-7.718618	-0.000269	-2.691657	-0.911958	0.021845
 164	8.1500e-02	6.5790	-7.463758	0.000628	6.280534	2.127903	0.050972
 165	8.2000e-02	6.6319	-6.990447	0.001166	11.663849	3.951819	0.094662
 166	8.2500e-02	6.6528	-7.245307	-0.000628	-6.280534	-2.127903	-0.050972
 167	8.3000e-02	6.6945	-7.245307	0.000000	0.000000	0.000000	0.000000
 168	8.3500e-02	6.7185	-7.063264	0.000449	4.486096	1.519930	0.036409
 169	8.4000e-02	6.7634	-6.881221	0.000449	4.486096	1.519930	0.036409
 170	8.4500e-02	6.8196	-6.589952	0.000718	7.177753	2.431889	0.058254
 171	8.5000e-02	6.8581	-6.517135	0.000179	1.794438	0.607972	0.014563
 172	8.5500e-02	6.8693	-6.335092	0.000449	4.486096	1.519930	0.036409
 173	8.6000e-02	6.9383	-6.589952	-0.000628	-6.280534	-2.127903	-0.050972
 174	8.6500e-02	6.9592	-6.153050	0.001077	10.766630	3.647833	0.087381
 175	8.7000e-02	7.0073	-5.825372	0.000807	8.074972	2.735875	0.065535
 176	8.7500e-02	7.0474	-5.679738	0.000359	3.588877	1.215944	0.029127
 177	8.8000e-02	7.0923	-6.007415	-0.000807	-8.074972	-2.735875	-0.065535
 178	8.8500e-02	7.1068	-5.133609	0.002153	21.533259	7.295666	0.174761
 179	8.9000e-02	7.1549	-5.570512	-0.001077	-10.766630	-3.647833	-0.087381
 180	8.9500e-02	7.1886	-5.060792	0.001256	12.561068	4.255805	0.101944
 181	9.0000e-02	7.2479	-5.133609	-0.000179	-1.794438	-0.607972	-0.014563
 182	9.0500e-02	7.2832	-5.352061	-0.000538	-5.383315	-1.823916	-0.043690
 183	9.1000e-02	7.3233	-4.733115	0.001525	15.252725	5.167763	0.123789
 184	9.1500e-02	7.3378	-4.878749	-0.000359	-3.588877	-1.215944	-0.029127
 185	9.2000e-02	7.3987	-4.587481	0.000718	7.177753	2.431889	0.058254
 186	9.2500e-02	7.4420	-4.478255	0.000269	2.691657	0.911958	0.021845
 187	9.3000e-02	7.4709	-4.587481	-0.000269	-2.691657	-0.911958	-0.021845
 188	9.3500e-02	7.5303	-4.296212	0.000718	7.177753	2.431889	0.058254
 189	9.4000e-02	7.5640	-4.114169	0.000449	4.486096	1.519930	0.036409
 190	9.4500e-02	7.6121	-3.932126	0.000449	4.486096	1.519930	0.036409
 191	9.5000e-02	7.6394	-3.932126	0.000000	0.000000	0.000000	0.000000
 192	9.5500e-02	7.6779	-3.640858	0.000718	7.177753	2.431889	0.058254
 193	9.6000e-02	7.7340	-3.203955	0.001077	10.766630	3.647833	0.087381
 194	9.6500e-02	7.7388	-3.604449	-0.000987	-9.869411	-3.343847	-0.080099
 195	9.7000e-02	7.7966	-3.313181	0.000718	7.177753	2.431889	0.058254
 196	9.7500e-02	7.8688	-2.912686	0.000987	9.869411	3.343847	0.080099
 197	9.8000e-02	7.8784	-3.094729	-0.000449	-4.486096	-1.519930	-0.036409
 198	9.8500e-02	7.9185	-2.767052	0.000807	8.074972	2.735875	0.065535
 199	9.9000e-02	7.9714	-2.657826	0.000269	2.691657	0.911958	0.021845
 200	9.9500e-02	7.9939	-2.657826	0.000000	0.000000	0.000000	0.000000
 201	1.0000e-01	8.0549	-2.585009	0.000179	1.794438	0.607972	0.014563
 202	1.0050e-01	8.0934	-2.366558	0.000538	5.383315	1.823916	0.043690
 203	1.0100e-01	8.1303	-2.075289	0.000718	7.177753	2.431889	0.058254
 204	1.0150e-01	8.1607	-2.148106	-0.000179	-1.794438	-0.607972	-0.014563
 205	1.0200e-01	8.1928	-2.038880	0.000269	2.691657	0.911958	0.021845
 206	1.0250e-01	8.2361	-1.929655	0.000269	2.691657	0.911958	0.021845
 207	1.0300e-01	8.3067	-1.565569	0.000897	8.972191	3.039861	0.072817
 208	1.0350e-01	8.3516	-1.565569	0.000000	0.000000	0.000000	0.000000
 209	1.0400e-01	8.3677	-1.492752	0.000179	1.794438	0.607972	0.014563
 210	1.0450e-01	8.4078	-1.092257	0.000987	9.869411	3.343847	0.080099
 211	1.0500e-01	8.4559	-1.201483	-0.000269	-2.691657	-0.911958	-0.021845
 212	1.0550e-01	8.4864	-1.128666	0.000179	1.794438	0.607972	0.014563
 213	1.0600e-01	8.5201	-0.618946	0.001256	12.561068	4.255805	0.101944
 214	1.0650e-01	8.5746	-0.655354	-0.000090	-0.897219	-0.303986	-0.007282
 215	1.0700e-01	8.6388	-0.473312	0.000449	4.486096	1.519930	0.036409
 216	1.0750e-01	8.6468	-0.509720	-0.000090	-0.897219	-0.303986	-0.007282
 217	1.0800e-01	8.6837	-0.291269	0.000538	5.383315	1.823916	0.043690
 218	1.0850e-01	8.7463	-0.291269	0.000000	0.000000	0.000000	0.000000
 219	1.0900e-01	8.7591	0.000000	0.000718	7.177753	2.431889	0.058254
 220	1.0950e-01	8.8088	-0.291269	-0.000718	-7.177753	-2.431889	-0.058254
 221	1.1000e-01	8.8393	0.145634	0.001077	10.766630	3.647833	0.087381
 222	1.1050e-01	8.8602	0.327677	0.000449	4.486096	1.519930	0.036409
 223	1.1100e-01	8.9227	0.509720	0.000449	4.486096	1.519930	0.036409
 224	1.1150e-01	8.9484	0.473312	-0.000090	-0.897219	-0.303986	-0.007282
 225	1.1200e-01	9.0190	0.873806	0.000987	9.869411	3.343847	0.080099
 226	1.1250e-01	9.0270	0.910214	0.000090	0.897219	0.303986	0.007282
 227	1.1300e-01	9.0751	0.983032	0.000179	1.794438	0.607972	0.014563
 228	1.1350e-01	9.0992	1.237892	0.000628	6.280534	2.127903	0.050972
 229	1.1400e-01	9.1441	1.165074	-0.000179	-1.794438	-0.607972	-0.014563
 230	1.1450e-01	9.2163	1.565569	0.000987	9.869411	3.343847	0.080099
 231	1.1500e-01	9.2548	1.456343	-0.000269	-2.691657	-0.911958	-0.021845
 232	1.1550e-01	9.2981	1.711203	0.000628	6.280534	2.127903	0.050972
 233	1.1600e-01	9.3013	1.784020	0.000179	1.794438	0.607972	0.014563
 234	1.1650e-01	9.3398	1.929655	0.000359	3.588877	1.215944	0.029127
 235	1.1700e-01	9.3896	2.038880	0.000269	2.691657	0.911958	0.021845
 236	1.1750e-01	9.4473	2.257332	0.000538	5.383315	1.823916	0.043690
 237	1.1800e-01	9.4682	2.148106	-0.000269	-2.691657	-0.911958	-0.021845
 238	1.1850e-01	9.5275	2.512192	0.000897	8.972191	3.039861	0.072817
 239	1.1900e-01	9.5612	2.730643	0.000538	5.383315	1.823916	0.043690
 240	1.1950e-01	9.6254	2.657826	-0.000179	-1.794438	-0.607972	-0.014563
 241	1.2000e-01	9.6334	2.767052	0.000269	2.691657	0.911958	0.021845
 242	1.2050e-01	9.6575	2.585009	-0.000449	-4.486096	-1.519930	-0.036409
 243	1.2100e-01	9.7425	3.422406	0.002064	20.636040	6.991680	0.167479
 244	1.2150e-01	9.7473	3.203955	-0.000538	-5.383315	-1.823916	-0.043690
 245	1.2200e-01	9.7938	3.458815	0.000628	6.280534	2.127903	0.050972
 246	1.2250e-01	9.8484	3.822901	0.000897	8.972191	3.039861	0.072817
 247	1.2300e-01	9.8773	3.531632	-0.000718	-7.177753	-2.431889	-0.058254
 248	1.2350e-01	9.9061	3.968535	0.001077	10.766630	3.647833	0.087381
 249	1.2400e-01	9.9430	4.186986	0.000538	5.383315	1.823916	0.043690
 250	1.2450e-01	10.0104	4.041352	-0.000359	-3.588877	-1.215944	-0.029127
 251	1.2500e-01	10.0441	4.186986	0.000359	3.588877	1.215944	0.029127
 252	1.2550e-01	10.0698	3.932126	-0.000628	-6.280534	-2.127903	-0.050972
 253	1.2600e-01	10.1195	4.296212	0.000897	8.972191	3.039861	0.072817
 254	1.2650e-01	10.1644	4.587481	0.000718	7.177753	2.431889	0.058254
 255	1.2700e-01	10.1981	4.623889	0.000090	0.897219	0.303986	0.007282
 256	1.2750e-01	10.2494	4.441846	-0.000449	-4.486096	-1.519930	-0.036409
 257	1.2800e-01	10.2847	4.769524	0.000807	8.074972	2.735875	0.065535
 258	1.2850e-01	10.3425	4.915158	0.000359	3.588877	1.215944	0.029127
 259	1.2900e-01	10.3345	5.060792	-0.000359	-3.588877	-1.215944	0.029127
 260	1.2950e-01	10.3954	4.987975	-0.000179	-1.794438	-0.607972	-0.014563
 261	1.3000e-01	10.4612	5.424878	0.001077	10.766630	3.647833	0.087381
 262	1.3050e-01	10.4869	5.242835	-0.000449	-4.486096	-1.519930	-0.036409
 263	1.3100e-01	10.5157	5.898189	0.001615	16.149945	5.471749	0.131071
 264	1.3150e-01	10.5462	5.752555	-0.000359	-3.588877	-1.215944	-0.029127
 265	1.3200e-01	10.6088	6.007415	0.000628	6.280534	2.127903	0.050972
 266	1.3250e-01	10.6248	5.934598	-0.000179	-1.794438	-0.607972	-0.014563
 267	1.3300e-01	10.6665	6.225867	0.000718	7.177753	2.431889	0.058254
 268	1.3350e-01	10.7195	6.225867	0.000000	0.000000	0.000000	0.000000
 269	1.3400e-01	10.7596	6.517135	0.000718	7.177753	2.431889	0.058254
 270	1.3450e-01	10.7997	6.407910	-0.000269	-2.691657	-0.911958	-0.021845
 271	1.3500e-01	10.8510	6.553544	0.000359	3.588877	1.215944	0.029127
 272	1.3550e-01	10.8783	6.699178	0.000359	3.588877	1.215944	0.029127
 273	1.3600e-01	10.9120	6.771995	0.000179	1.794438	0.607972	0.014563
 274	1.3650e-01	10.9553	6.954038	0.000449	4.486096	1.519930	0.036409
 275	1.3700e-01	11.0115	6.990447	0.000090	0.897219	0.303986	0.007282
 276	1.3750e-01	11.0355	7.245307	0.000628	6.280534	2.127903	0.050972
 277	1.3800e-01	11.0933	7.354533	0.000269	2.691657	0.911958	0.021845
 278	1.3850e-01	11.1286	7.572984	0.000538	5.383315	1.823916	0.043690
 279	1.3900e-01	11.1847	7.463758	-0.000269	-2.691657	-0.911958	-0.021845
 280	1.3950e-01	11.2232	7.718618	0.000628	6.280534	2.127903	0.050972
 281	1.4000e-01	11.2441	7.755027	0.000090	0.897219	0.303986	0.007282
 282	1.4050e-01	11.2810	7.718618	-0.000090	-0.897219	-0.303986	-0.007282
 283	1.4100e-01	11.3259	8.009887	0.000718	7.177753	2.431889	0.058254
 284	1.4150e-01	11.3564	8.119113	0.000269	2.691657	0.911958	0.021845
 285	1.4200e-01	11.4109	8.301156	0.000449	4.486096	1.519930	0.036409
 286	1.4250e-01	11.4382	8.373973	0.000179	1.794438	0.607972	0.014563
 287	1.4300e-01	11.4863	8.519607	0.000359	3.588877	1.215944	0.029127
 288	1.4350e-01	11.5104	8.519607	0.000000	0.000000	0.000000	0.000000
 289	1.4400e-01	11.5569	8.920101	0.000987	9.869411	3.343847	0.080099
 290	1.4450e-01	11.6243	8.883693	-0.000090	-0.897219	-0.303986	-0.007282
 291	1.4500e-01	11.6483	8.810876	-0.000179	-1.794438	-0.607972	-0.014563
 292	1.4550e-01	11.7013	9.357004	0.001346	13.458287	4.559791	0.109226
 293	1.4600e-01	11.7189	8.883693	-0.001166	-11.663849	-3.951819	-0.094662
 294	1.4650e-01	11.7414	9.393413	0.001256	12.561068	4.255805	0.101944
 295	1.4700e-01	11.8120	9.611864	0.000538	5.383315	1.823916	0.043690
 296	1.4750e-01	11.8457	9.466230	-0.000359	-3.588877	-1.215944	-0.029127
 297	1.4800e-01	11.8890	9.721090	0.000628	6.280534	2.127903	0.050972
 298	1.4850e-01	11.9178	9.903133	0.000449	4.486096	1.519930	0.036409
 299	1.4900e-01	11.9531	10.121584	0.000538	5.383315	1.823916	0.043690
 300	1.4950e-01	11.9852	9.830316	-0.000718	-7.177753	-2.431889	-0.058254
 301	1.5000e-01	12.0526	10.121584	0.000718	7.177753	2.431889	0.058254
 302	1.5050e-01	12.0686	10.303627	0.000449	4.486096	1.519930	0.036409
 303	1.5100e-01	12.1136	10.412853	0.000269	2.691657	0.911958	0.021845
 304	1.5150e-01	12.1633	10.558487	0.000359	3.588877	1.215944	0.029127
 305	1.5200e-01	12.1970	10.558487	0.000000	0.000000	0.000000	0.000000
 306	1.5250e-01	12.2692	10.886165	0.000807	8.074972	2.735875	0.065535
 307	1.5300e-01	12.2836	10.849756	-0.000090	-0.897219	-0.303986	-0.007282
 308	1.5350e-01	12.3526	10.886165	0.000090	0.897219	0.303986	0.007282
 309	1.5400e-01	12.3799	11.250250	0.000897	8.972191	3.039861	0.072817
 310	1.5450e-01	12.3943	11.068207	-0.000449	-4.486096	-1.519930	-0.036409
 311	1.5500e-01	12.4665	10.849756	-0.000538	-5.383315	-1.823916	-0.043690
 312	1.5550e-01	12.5114	11.723562	0.002153	21.533259	7.295666	0.174761
 313	1.5600e-01	12.5242	11.723562	0.000000	0.000000	0.000000	0.000000
 314	1.5650e-01	12.5627	11.759970	0.000090	0.897219	0.303986	0.007282
 315	1.5700e-01	12.6301	11.796379	0.000090	0.897219	0.303986	0.007282
 316	1.5750e-01	12.6430	11.832788	0.000090	0.897219	0.303986	0.007282
 317	1.5800e-01	12.6766	12.087648	0.000628	6.280534	2.127903	0.050972
 318	1.5850e-01	12.7296	12.087648	0.000000	0.000000	0.000000	0.000000
 319	1.5900e-01	12.7633	12.196873	0.000269	2.691657	0.911958	0.021845
 320	1.5950e-01	12.8162	12.306099	0.000269	2.691657	0.911958	0.021845
 321	1.6000e-01	12.8515	12.633776	0.000807	8.074972	2.735875	0.065535
 322	1.6050e-01	12.8900	12.415325	-0.000538	-5.383315	-1.823916	-0.043690
 323	1.6100e-01	12.9269	12.779411	0.000897	8.972191	3.039861	0.072817
 324	1.6150e-01	12.9413	13.034271	0.000628	6.280534	2.127903	0.050972
 325	1.6200e-01	13.0248	12.961453	-0.000179	-1.794438	-0.607972	-0.014563
 326	1.6250e-01	13.0328	12.779411	-0.000449	-4.486096	-1.519930	-0.036409
 327	1.6300e-01	13.0761	12.925045	0.000359	3.588877	1.215944	0.029127
 328	1.6350e-01	13.1178	13.434765	0.001256	12.561068	4.255805	0.101944
 329	1.6400e-01	13.1531	13.361948	-0.000179	-1.794438	-0.607972	-0.014563
 330	1.6450e-01	13.1996	13.689625	0.000807	8.074972	2.735875	0.065535
 331	1.6500e-01	13.2413	13.726034	0.000090	0.897219	0.303986	0.007282
 332	1.6550e-01	13.2830	13.798851	0.000179	1.794438	0.607972	0.014563
 333	1.6600e-01	13.3071	14.090119	0.000718	7.177753	2.431889	0.058254
 334	1.6650e-01	13.3697	13.798851	-0.000718	-7.177753	-2.431889	-0.058254
 335	1.6700e-01	13.3873	14.053711	0.000628	6.280534	2.127903	0.050972
 336	1.6750e-01	13.4483	14.344979	0.000718	7.177753	2.431889	0.058254
 337	1.6800e-01	13.4996	14.381388	0.000090	0.897219	0.303986	0.007282
 338	1.6850e-01	13.5189	14.417796	0.000090	0.897219	0.303986	0.007282
 339	1.6900e-01	13.5638	14.599839	0.000449	4.486096	1.519930	0.036409
 340	1.6950e-01	13.5862	14.636248	0.000090	0.897219	0.303986	0.007282
 341	1.7000e-01	13.6424	14.854699	0.000538	5.383315	1.823916	0.043690
 342	1.7050e-01	13.6729	15.036742	0.000449	4.486096	1.519930	0.036409
 343	1.7100e-01	13.7018	14.963925	-0.000179	-1.794438	-0.607972	-0.014563
 344	1.7150e-01	13.7627	14.891108	-0.000179	-1.794438	-0.607972	-0.014563
 345	1.7200e-01	13.7900	15.619280	0.001794	17.944383	6.079721	0.145634
 346	1.7250e-01	13.8461	15.364419	-0.000628	-6.280534	-2.127903	-0.050972
 347	1.7300e-01	13.8574	15.145968	-0.000538	-5.383315	-1.823916	-0.043690
 348	1.7350e-01	13.9023	15.837731	0.001705	17.047164	5.775735	0.138353
 349	1.7400e-01	13.9632	15.582871	-0.000628	-6.280534	-2.127903	-0.050972
 350	1.7450e-01	13.9809	16.019774	0.001077	10.766630	3.647833	0.087381
 351	1.7500e-01	14.0194	15.801322	-0.000538	-5.383315	-1.823916	-0.043690
 352	1.7550e-01	14.0771	16.092591	0.000718	7.177753	2.431889	0.058254
 353	1.7600e-01	14.1493	15.946957	-0.000359	-3.588877	-1.215944	-0.029127
 354	1.7650e-01	14.1558	16.529494	0.001436	14.355506	4.863777	0.116507
 355	1.7700e-01	14.2135	16.274634	-0.000628	-6.280534	-2.127903	-0.050972
 356	1.7750e-01	14.2520	16.638720	0.000897	8.972191	3.039861	0.072817
 357	1.7800e-01	14.2777	16.602311	-0.000090	-0.897219	-0.303986	-0.007282
 358	1.7850e-01	14.3306	16.747945	0.000359	3.588877	1.215944	0.029127
 359	1.7900e-01	14.3755	16.638720	-0.000269	-2.691657	-0.911958	-0.021845
 360	1.7950e-01	14.4044	17.184848	0.001346	13.458287	4.559791	0.109226
 361	1.8000e-01	14.4461	17.075623	-0.000269	-2.691657	-0.911958	-0.021845
 362	1.8050e-01	14.4573	16.711537	-0.000897	-8.972191	-3.039861	-0.072817
 363	1.8100e-01	14.5440	17.658160	0.002333	23.327698	7.903638	0.189325
 364	1.8150e-01	14.5777	17.621751	-0.000090	-0.897219	-0.303986	-0.007282
 365	1.8200e-01	14.5873	17.366891	-0.000628	-6.280534	-2.127903	-0.050972
 366	1.8250e-01	14.6627	17.694568	0.000807	8.074972	2.735875	0.065535
 367	1.8300e-01	14.6900	17.621751	-0.000179	-1.794438	-0.607972	-0.014563
 368	1.8350e-01	14.7220	17.876611	0.000628	6.280534	2.127903	0.050972
 369	1.8400e-01	14.7718	17.876611	0.000000	0.000000	0.000000	0.000000
 370	1.8450e-01	14.8055	18.167880	0.000718	7.177753	2.431889	0.058254
 371	1.8500e-01	14.8279	18.240697	0.000179	1.794438	0.607972	0.014563
 372	1.8550e-01	14.9001	18.022246	-0.000538	-5.383315	-1.823916	-0.043690
 373	1.8600e-01	14.9322	18.422740	0.000987	9.869411	3.343847	0.080099
 374	1.8650e-01	14.9547	18.313514	-0.000269	-2.691657	-0.911958	-0.021845
 375	1.8700e-01	14.9964	18.750417	0.001077	10.766630	3.647833	0.087381
 376	1.8750e-01	15.0477	18.968869	0.000538	5.383315	1.823916	0.043690
 377	1.8800e-01	15.0782	18.677600	-0.000718	-7.177753	-2.431889	-0.058254
 378	1.8850e-01	15.0862	18.677600	0.000000	0.000000	0.000000	0.000000
 379	1.8900e-01	15.1696	19.005277	0.000807	8.074972	2.735875	0.065535
 380	1.8950e-01	15.2049	19.187320	0.000449	4.486096	1.519930	0.036409
 381	1.9000e-01	15.2498	19.296546	0.000269	2.691657	0.911958	0.021845
 382	1.9050e-01	15.2739	19.187320	-0.000269	-2.691657	-0.911958	-0.021845
 383	1.9100e-01	15.2996	19.478589	0.000718	7.177753	2.431889	0.058254
 384	1.9150e-01	15.3573	19.660632	0.000449	4.486096	1.519930	0.036409
 385	1.9200e-01	15.4103	19.332954	-0.000807	-8.074972	-2.735875	-0.065535
 386	1.9250e-01	15.4151	19.806266	0.001166	11.663849	3.951819	0.094662
 387	1.9300e-01	15.4616	20.097534	0.000718	7.177753	2.431889	0.058254
 388	1.9350e-01	15.5097	19.806266	-0.000718	-7.177753	-2.431889	-0.058254
 389	1.9400e-01	15.5562	20.170352	0.000897	8.972191	3.039861	0.072817
 390	1.9450e-01	15.6076	20.243169	0.000179	1.794438	0.607972	0.014563
 391	1.9500e-01	15.6397	20.461620	0.000538	5.383315	1.823916	0.043690
 392	1.9550e-01	15.6846	20.315986	-0.000359	-3.588877	-1.215944	-0.029127
 393	1.9600e-01	15.7086	20.570846	0.000628	6.280534	2.127903	0.050972
 394	1.9650e-01	15.7471	20.752889	0.000449	4.486096	1.519930	0.036409
 395	1.9700e-01	15.8193	20.570846	-0.000449	-4.486096	-1.519930	-0.036409
 396	1.9750e-01	15.8225	20.898523	0.000807	8.074972	2.735875	0.065535
 397	1.9800e-01	15.8947	20.898523	0.000000	0.000000	0.000000	0.000000
 398	1.9850e-01	15.9348	21.189792	0.000718	7.177753	2.431889	0.058254
 399	1.9900e-01	15.9685	20.934932	-0.000628	-6.280534	-2.127903	-0.050972
 400	1.9950e-01	15.9862	21.299018	0.000897	8.972191	3.039861	0.072817
 401	2.0000e-01	16.0263	21.007749	-0.000718	-7.177753	-2.431889	-0.058254
 402	2.0050e-01	16.0824	21.262609	0.000628	6.280534	2.127903	0.050972
 403	2.0100e-01	16.1209	21.408243	0.000359	3.588877	1.215944	0.029127
 404	2.0150e-01	16.1610	21.626695	0.000538	5.383315	1.823916	0.043690
 405	2.0200e-01	16.1771	21.699512	0.000179	1.794438	0.607972	0.014563
 406	2.0250e-01	16.2364	21.772329	0.000179	1.794438	0.607972	0.014563
 407	2.0300e-01	16.2782	21.990780	0.000538	5.383315	1.823916	0.043690
 408	2.0350e-01	16.3311	22.209232	0.000538	5.383315	1.823916	0.043690
 409	2.0400e-01	16.3744	22.282049	0.000179	1.794438	0.607972	0.014563
 410	2.0450e-01	16.4145	22.172823	-0.000269	-2.691657	-0.911958	-0.021845
 411	2.0500e-01	16.4482	22.609726	0.001077	10.766630	3.647833	0.087381
 412	2.0550e-01	16.4755	22.464092	-0.000359	-3.588877	-1.215944	-0.029127
 413	2.0600e-01	16.5268	22.354866	-0.000269	-2.691657	-0.911958	-0.021845
 414	2.0650e-01	16.5621	22.536909	0.000449	4.486096	1.519930	0.036409
 415	2.0700e-01	16.5765	22.609726	0.000179	1.794438	0.607972	0.014563
 416	2.0750e-01	16.6375	22.828178	0.000538	5.383315	1.823916	0.043690
 417	2.0800e-01	16.6856	23.083038	0.000628	6.280534	2.127903	0.050972
 418	2.0850e-01	16.7338	23.083038	0.000000	0.000000	0.000000	0.000000
 419	2.0900e-01	16.7771	23.301489	0.000538	5.383315	1.823916	0.043690
 420	2.0950e-01	16.8011	23.301489	0.000000	0.000000	0.000000	0.000000
 421	2.1000e-01	16.8557	23.447124	0.000359	3.588877	1.215944	0.029127
 422	2.1050e-01	16.8685	23.301489	-0.000359	-3.588877	-1.215944	-0.029127
 423	2.1100e-01	16.9150	23.629166	0.000807	8.074972	2.735875	0.065535
 424	2.1150e-01	16.9616	23.738392	0.000269	2.691657	0.911958	0.021845
 425	2.1200e-01	17.0065	23.956844	0.000538	5.383315	1.823916	0.043690
 426	2.1250e-01	17.0562	23.774801	-0.000449	-4.486096	-1.519930	-0.036409
 427	2.1300e-01	17.0690	24.029661	0.000628	6.280534	2.127903	0.050972
 428	2.1350e-01	17.1172	24.175295	0.000359	3.588877	1.215944	0.029127
 429	2.1400e-01	17.1717	24.138887	-0.000090	-0.897219	-0.303986	-0.007282
 430	2.1450e-01	17.1974	24.430155	0.000718	7.177753	2.431889	0.058254
 431	2.1500e-01	17.2648	24.648607	0.000538	5.383315	1.823916	0.043690
 432	2.1550e-01	17.2984	24.685015	0.000090	0.897219	0.303986	0.007282
 433	2.1600e-01	17.3257	24.539381	-0.000359	-3.588877	-1.215944	-0.029127
 434	2.1650e-01	17.3530	24.903467	0.000897	8.972191	3.039861	0.072817
 435	2.1700e-01	17.4236	25.049101	0.000359	3.588877	1.215944	0.029127
 436	2.1750e-01	17.4332	24.721424	-0.000807	-8.074972	-2.735875	-0.065535
 437	2.1800e-01	17.4845	25.085510	0.000897	8.972191	3.039861	0.072817
 438	2.1850e-01	17.5182	25.194735	0.000269	2.691657	0.911958	0.021845
 439	2.1900e-01	17.5567	25.231144	0.000090	0.897219	0.303986	0.007282
 440	2.1950e-01	17.5808	25.522412	0.000718	7.177753	2.431889	0.058254
 441	2.2000e-01	17.6466	25.449595	-0.000179	-1.794438	-0.607972	-0.014563
 442	2.2050e-01	17.6690	25.631638	0.000449	4.486096	1.519930	0.036409
 443	2.2100e-01	17.7332	25.740864	0.000269	2.691657	0.911958	0.021845
 444	2.2150e-01	17.7460	25.413187	-0.000807	-8.074972	-2.735875	-0.065535
 445	2.2200e-01	17.7877	26.323401	0.002243	22.430479	7.599652	0.182043
 446	2.2250e-01	17.8519	25.704455	-0.001525	-15.252725	-5.167763	-0.123789
 447	2.2300e-01	17.8920	26.286993	0.001436	14.355506	4.863777	0.116507
 448	2.2350e-01	17.9257	26.214175	-0.000179	-1.794438	-0.607972	-0.014563
 449	2.2400e-01	17.9466	26.432627	0.000538	5.383315	1.823916	0.043690
 450	2.2450e-01	17.9915	26.469035	0.000090	0.897219	0.303986	0.007282
 451	2.2500e-01	18.0428	26.432627	-0.000090	-0.897219	-0.303986	-0.007282
 452	2.2550e-01	18.0813	26.469035	0.000090	0.897219	0.303986	0.007282
 453	2.2600e-01	18.1230	26.905938	0.001077	10.766630	3.647833	0.087381
 454	2.2650e-01	18.1375	26.869530	-0.000090	-0.897219	-0.303986	-0.007282
 455	2.2700e-01	18.2353	26.869530	0.000000	0.000000	0.000000	0.000000
 456	2.2750e-01	18.2465	27.015164	0.000359	3.588877	1.215944	0.029127
 457	2.2800e-01	18.2866	27.015164	0.000000	0.000000	0.000000	0.000000
 458	2.2850e-01	18.3316	26.869530	-0.000359	-3.588877	-1.215944	-0.029127
 459	2.2900e-01	18.3669	27.270024	0.000987	9.869411	3.343847	0.080099
 460	2.2950e-01	18.3893	27.306433	0.000090	0.897219	0.303986	0.007282
 461	2.3000e-01	18.4487	27.379250	0.000179	1.794438	0.607972	0.014563
 462	2.3050e-01	18.4840	27.634110	0.000628	6.280534	2.127903	0.050972
 463	2.3100e-01	18.5177	27.452067	-0.000449	-4.486096	-1.519930	-0.036409
 464	2.3150e-01	18.5915	27.816153	0.000897	8.972191	3.039861	0.072817
 465	2.3200e-01	18.5898	27.852561	-0.000090	-0.897219	-0.303986	0.007282
 466	2.3250e-01	18.6636	28.071013	0.000538	5.383315	1.823916	0.043690
 467	2.3300e-01	18.6989	27.852561	-0.000538	-5.383315	-1.823916	-0.043690
 468	2.3350e-01	18.7005	28.216647	0.000897	8.972191	3.039861	0.072817
 469	2.3400e-01	18.7535	28.216647	0.000000	0.000000	0.000000	0.000000
 470	2.3450e-01	18.7920	28.253056	0.000090	0.897219	0.303986	0.007282
 471	2.3500e-01	18.8529	28.689959	0.001077	10.766630	3.647833	0.087381
 472	2.3550e-01	18.8722	28.325873	-0.000897	-8.972191	-3.039861	-0.072817
 473	2.3600e-01	18.9107	28.653550	0.000807	8.074972	2.735875	0.065535
 474	2.3650e-01	18.9588	28.689959	0.000090	0.897219	0.303986	0.007282
 475	2.3700e-01	18.9973	28.799184	0.000269	2.691657	0.911958	0.021845
 476	2.3750e-01	19.0551	29.163270	0.000897	8.972191	3.039861	0.072817
 477	2.3800e-01	19.0759	28.944819	-0.000538	-5.383315	-1.823916	-0.043690
 478	2.3850e-01	19.1225	28.799184	-0.000359	-3.588877	-1.215944	-0.029127
 479	2.3900e-01	19.1626	29.199679	0.000987	9.869411	3.343847	0.080099
 480	2.3950e-01	19.1834	29.345313	0.000359	3.588877	1.215944	0.029127
 481	2.4000e-01	19.2235	29.163270	-0.000449	-4.486096	-1.519930	-0.036409
 482	2.4050e-01	19.3134	29.818625	0.001615	16.149945	5.471749	0.131071
 483	2.4100e-01	19.3294	29.709399	-0.000269	-2.691657	-0.911958	-0.021845
 484	2.4150e-01	19.3535	29.927850	0.000538	5.383315	1.823916	0.043690
 485	2.4200e-01	19.4000	29.891442	-0.000090	-0.897219	-0.303986	-0.007282
 486	2.4250e-01	19.4064	29.709399	-0.000449	-4.486096	-1.519930	-0.036409
 487	2.4300e-01	19.4722	30.182710	0.001166	11.663849	3.951819	0.094662
 488	2.4350e-01	19.5171	30.219119	0.000090	0.897219	0.303986	0.007282
 489	2.4400e-01	19.5604	30.219119	0.000000	0.000000	0.000000	0.000000
 490	2.4450e-01	19.5893	29.964259	-0.000628	-6.280534	-2.127903	-0.050972
 491	2.4500e-01	19.6390	30.219119	0.000628	6.280534	2.127903	0.050972
 492	2.4550e-01	19.6920	30.328345	0.000269	2.691657	0.911958	0.021845
 493	2.4600e-01	19.7000	30.473979	0.000359	3.588877	1.215944	0.029127
 494	2.4650e-01	19.7513	30.728839	0.000628	6.280534	2.127903	0.050972
 495	2.4700e-01	19.8219	31.020108	0.000718	7.177753	2.431889	0.058254
 496	2.4750e-01	19.8476	30.765248	-0.000628	-6.280534	-2.127903	-0.050972
 497	2.4800e-01	19.8716	30.910882	0.000359	3.588877	1.215944	0.029127
 498	2.4850e-01	19.9214	31.020108	0.000269	2.691657	0.911958	0.021845
 499	2.4900e-01	19.9663	31.274968	0.000628	6.280534	2.127903	0.050972
 500	2.4950e-01	19.9807	31.529828	0.000628	6.280534	2.127903	0.050972
 501	2.5000e-01	20.0272	31.202150	-0.000807	-8.074972	-2.735875	-0.065535
 502	2.5050e-01	20.0016	31.529828	-0.000807	-8.074972	-2.735875	0.065535
 503	2.5100e-01	19.9390	31.384193	0.000359	3.588877	1.215944	-0.029127
 504	2.5150e-01	19.8893	30.838065	0.001346	13.458287	4.559791	-0.109226
 505	2.5200e-01	19.8508	30.947290	-0.000269	-2.691657	-0.911958	0.021845
 506	2.5250e-01	19.8123	31.347785	-0.000987	-9.869411	-3.343847	0.080099
 507	2.5300e-01	19.7962	31.056516	0.000718	7.177753	2.431889	-0.058254
 508	2.5350e-01	19.7256	30.910882	0.000359	3.588877	1.215944	-0.029127
 509	2.5400e-01	19.6855	30.619613	0.000718	7.177753	2.431889	-0.058254
 510	2.5450e-01	19.6438	30.473979	0.000359	3.588877	1.215944	-0.029127
 511	2.5500e-01	19.6134	30.692430	-0.000538	-5.383315	-1.823916	0.043690
 512	2.5550e-01	19.5684	30.838065	-0.000359	-3.588877	-1.215944	0.029127
 513	2.5600e-01	19.5299	30.910882	-0.000179	-1.794438	-0.607972	0.014563
 514	2.5650e-01	19.4866	29.964259	0.002333	23.327698	7.903638	-0.189325
 515	2.5700e-01	19.4353	30.219119	-0.000628	-6.280534	-2.127903	0.050972
 516	2.5750e-01	19.4144	30.073485	0.000359	3.588877	1.215944	-0.029127
 517	2.5800e-01	19.4176	30.146302	0.000179	1.794438	0.607972	0.014563
 518	2.5850e-01	19.3647	30.364753	-0.000538	-5.383315	-1.823916	0.043690
 519	2.5900e-01	19.2941	30.000667	0.000897	8.972191	3.039861	-0.072817
 520	2.5950e-01	19.2652	29.745807	0.000628	6.280534	2.127903	-0.050972
 521	2.6000e-01	19.2123	29.782216	-0.000090	-0.897219	-0.303986	0.007282
 522	2.6050e-01	19.1561	30.037076	-0.000628	-6.280534	-2.127903	0.050972
 523	2.6100e-01	19.1273	29.454539	0.001436	14.355506	4.863777	-0.116507
 524	2.6150e-01	19.1096	29.672990	-0.000538	-5.383315	-1.823916	0.043690
 525	2.6200e-01	19.0471	29.381722	0.000718	7.177753	2.431889	-0.058254
 526	2.6250e-01	18.9989	29.199679	0.000449	4.486096	1.519930	-0.036409
 527	2.6300e-01	18.9861	29.454539	-0.000628	-6.280534	-2.127903	0.050972
 528	2.6350e-01	18.9267	29.090453	0.000897	8.972191	3.039861	-0.072817
 529	2.6400e-01	18.8963	29.308904	-0.000538	-5.383315	-1.823916	0.043690
 530	2.6450e-01	18.8754	28.908410	0.000987	9.869411	3.343847	-0.080099
 531	2.6500e-01	18.7840	28.762776	0.000359	3.588877	1.215944	-0.029127
 532	2.6550e-01	18.7615	28.908410	-0.000359	-3.588877	-1.215944	0.029127
 533	2.6600e-01	18.7246	28.726367	0.000449	4.486096	1.519930	-0.036409
 534	2.6650e-01	18.7150	28.872002	-0.000359	-3.588877	-1.215944	0.029127
 535	2.6700e-01	18.6652	28.617141	0.000628	6.280534	2.127903	-0.050972
 536	2.6750e-01	18.6123	28.216647	0.000987	9.869411	3.343847	-0.080099
 537	2.6800e-01	18.5594	28.180239	0.000090	0.897219	0.303986	-0.007282
 538	2.6850e-01	18.5417	28.398690	-0.000538	-5.383315	-1.823916	0.043690
 539	2.6900e-01	18.5112	28.180239	0.000538	5.383315	1.823916	-0.043690
 540	2.6950e-01	18.4727	28.180239	-0.000000	-0.000000	-0.000000	0.000000
 541	2.7000e-01	18.4102	28.071013	0.000269	2.691657	0.911958	-0.021845
 542	2.7050e-01	18.3797	28.107421	-0.000090	-0.897219	-0.303986	0.007282
 543	2.7100e-01	18.3284	27.998196	0.000269	2.691657	0.911958	-0.021845
 544	2.7150e-01	18.2915	27.816153	0.000449	4.486096	1.519930	-0.036409
 545	2.7200e-01	18.2738	27.488476	0.000807	8.074972	2.735875	-0.065535
 546	2.7250e-01	18.2273	27.342841	0.000359	3.588877	1.215944	-0.029127
 547	2.7300e-01	18.1808	27.743336	-0.000987	-9.869411	-3.343847	0.080099
 548	2.7350e-01	18.1166	27.524884	0.000538	5.383315	1.823916	-0.043690
 549	2.7400e-01	18.0685	27.160798	0.000897	8.972191	3.039861	-0.072817
 550	2.7450e-01	18.0524	27.197207	-0.000090	-0.897219	-0.303986	0.007282
 551	2.7500e-01	18.0203	27.524884	-0.000807	-8.074972	-2.735875	0.065535
 552	2.7550e-01	17.9706	27.233616	0.000718	7.177753	2.431889	-0.058254
 553	2.7600e-01	17.9401	27.087981	0.000359	3.588877	1.215944	-0.029127
 554	2.7650e-01	17.8904	26.541853	0.001346	13.458287	4.559791	-0.109226
 555	2.7700e-01	17.8551	26.796713	-0.000628	-6.280534	-2.127903	0.050972
 556	2.7750e-01	17.8022	26.505444	0.000718	7.177753	2.431889	-0.058254
 557	2.7800e-01	17.7861	26.651078	-0.000359	-3.588877	-1.215944	0.029127
 558	2.7850e-01	17.7348	26.396218	0.000628	6.280534	2.127903	-0.050972
 559	2.7900e-01	17.6835	26.396218	-0.000000	-0.000000	-0.000000	0.000000
 560	2.7950e-01	17.6835	26.432627	-0.000090	-0.897219	-0.303986	0.007282
 561	2.8000e-01	17.6049	26.323401	0.000269	2.691657	0.911958	-0.021845
 562	2.8050e-01	17.5856	25.922907	0.000987	9.869411	3.343847	-0.080099
 563	2.8100e-01	17.5295	26.396218	-0.001166	-11.663849	-3.951819	0.094662
 564	2.8150e-01	17.4653	25.922907	0.001166	11.663849	3.951819	-0.094662
 565	2.8200e-01	17.4524	26.104950	-0.000449	-4.486096	-1.519930	0.036409
 566	2.8250e-01	17.3995	25.558821	0.001346	13.458287	4.559791	-0.109226
 567	2.8300e-01	17.3867	25.813681	-0.000628	-6.280534	-2.127903	0.050972
 568	2.8350e-01	17.3514	25.449595	0.000897	8.972191	3.039861	-0.072817
 569	2.8400e-01	17.2824	25.777272	-0.000807	-8.074972	-2.735875	0.065535
 570	2.8450e-01	17.2551	25.413187	0.000897	8.972191	3.039861	-0.072817
 571	2.8500e-01	17.1910	25.376778	0.000090	0.897219	0.303986	-0.007282
 572	2.8550e-01	17.1685	24.976284	0.000987	9.869411	3.343847	-0.080099
 573	2.8600e-01	17.1685	25.376778	-0.000987	-9.869411	-3.343847	0.080099
 574	2.8650e-01	17.1043	25.049101	0.000807	8.074972	2.735875	-0.065535
 575	2.8700e-01	17.0722	25.158327	-0.000269	-2.691657	-0.911958	0.021845
 576	2.8750e-01	17.0370	25.158327	-0.000000	-0.000000	-0.000000	0.000000
 577	2.8800e-01	16.9744	24.685015	0.001166	11.663849	3.951819	-0.094662
 578	2.8850e-01	16.9343	24.648607	0.000090	0.897219	0.303986	-0.007282
 579	2.8900e-01	16.8942	24.612198	0.000090	0.897219	0.303986	-0.007282
 580	2.8950e-01	16.8781	24.539381	0.000179	1.794438	0.607972	-0.014563
 581	2.9000e-01	16.8204	24.502972	0.000090	0.897219	0.303986	-0.007282
 582	2.9050e-01	16.7915	24.211704	0.000718	7.177753	2.431889	-0.058254
 583	2.9100e-01	16.7177	24.430155	-0.000538	-5.383315	-1.823916	0.043690
 584	2.9150e-01	16.6953	23.956844	0.001166	11.663849	3.951819	-0.094662
 585	2.9200e-01	16.6487	24.175295	-0.000538	-5.383315	-1.823916	0.043690
 586	2.9250e-01	16.6054	23.993252	0.000449	4.486096	1.519930	-0.036409
 587	2.9300e-01	16.5509	23.738392	0.000628	6.280534	2.127903	-0.050972
 588	2.9350e-01	16.5252	23.701984	0.000090	0.897219	0.303986	-0.007282
 589	2.9400e-01	16.5027	23.847618	-0.000359	-3.588877	-1.215944	0.029127
 590	2.9450e-01	16.4514	23.665575	0.000449	4.486096	1.519930	-0.036409
 591	2.9500e-01	16.4193	23.774801	-0.000269	-2.691657	-0.911958	0.021845
 592	2.9550e-01	16.3728	23.155855	0.001525	15.252725	5.167763	-0.123789
 593	2.9600e-01	16.3150	23.301489	-0.000359	-3.588877	-1.215944	0.029127
 594	2.9650e-01	16.2926	23.228672	0.000179	1.794438	0.607972	-0.014563
 595	2.9700e-01	16.2557	22.937403	0.000718	7.177753	2.431889	-0.058254
 596	2.9750e-01	16.2092	23.010221	-0.000179	-1.794438	-0.607972	0.014563
 597	2.9800e-01	16.1755	22.791769	0.000538	5.383315	1.823916	-0.043690
 598	2.9850e-01	16.1434	22.864586	-0.000179	-1.794438	-0.607972	0.014563
 599	2.9900e-01	16.0985	22.828178	0.000090	0.897219	0.303986	-0.007282
 600	2.9950e-01	16.0824	22.900995	-0.000179	-1.794438	-0.607972	0.014563
 601	3.0000e-01	16.0054	22.682543	0.000538	5.383315	1.823916	-0.043690
 602	3.0050e-01	15.9477	22.536909	0.000359	3.588877	1.215944	-0.029127
 603	3.0100e-01	15.9477	22.500501	0.000090	0.897219	0.303986	-0.007282
 604	3.0150e-01	15.8883	22.282049	0.000538	5.383315	1.823916	-0.043690
 605	3.0200e-01	15.8835	22.282049	-0.000000	-0.000000	-0.000000	0.000000
 606	3.0250e-01	15.8242	22.172823	0.000269	2.691657	0.911958	-0.021845
 607	3.0300e-01	15.7840	21.772329	0.000987	9.869411	3.343847	-0.080099
 608	3.0350e-01	15.7279	21.772329	-0.000000	-0.000000	-0.000000	0.000000
 609	3.0400e-01	15.7070	21.808738	-0.000090	-0.897219	-0.303986	0.007282
 610	3.0450e-01	15.6653	21.444652	0.000897	8.972191	3.039861	-0.072817
 611	3.0500e-01	15.6044	21.881555	-0.001077	-10.766630	-3.647833	0.087381
 612	3.0550e-01	15.5803	21.189792	0.001705	17.047164	5.775735	-0.138353
 613	3.0600e-01	15.5306	21.517469	-0.000807	-8.074972	-2.735875	0.065535
 614	3.0650e-01	15.4744	21.517469	-0.000000	-0.000000	-0.000000	0.000000
 615	3.0700e-01	15.4375	21.153383	0.000897	8.972191	3.039861	-0.072817
 616	3.0750e-01	15.4311	21.262609	-0.000269	-2.691657	-0.911958	0.021845
 617	3.0800e-01	15.4022	21.153383	0.000269	2.691657	0.911958	-0.021845
 618	3.0850e-01	15.3397	21.080566	0.000179	1.794438	0.607972	-0.014563
 619	3.0900e-01	15.2915	20.716480	0.000897	8.972191	3.039861	-0.072817
 620	3.0950e-01	15.2563	20.862115	-0.000359	-3.588877	-1.215944	0.029127
 621	3.1000e-01	15.2049	21.044157	-0.000449	-4.486096	-1.519930	0.036409
 622	3.1050e-01	15.1616	20.607255	0.001077	10.766630	3.647833	-0.087381
 623	3.1100e-01	15.1359	20.643663	-0.000090	-0.897219	-0.303986	0.007282
 624	3.1150e-01	15.0718	20.388803	0.000628	6.280534	2.127903	-0.050972
 625	3.1200e-01	15.0509	20.425212	-0.000090	-0.897219	-0.303986	0.007282
 626	3.1250e-01	15.0220	20.279577	0.000359	3.588877	1.215944	-0.029127
 627	3.1300e-01	14.9563	20.170352	0.000269	2.691657	0.911958	-0.021845
 628	3.1350e-01	14.9691	19.806266	-0.000897	-8.972191	-3.039861	-0.072817
 629	3.1400e-01	14.9033	20.061126	-0.000628	-6.280534	-2.127903	0.050972
 630	3.1450e-01	14.8841	19.915492	0.000359	3.588877	1.215944	-0.029127
 631	3.1500e-01	14.8456	19.697040	0.000538	5.383315	1.823916	-0.043690
 632	3.1550e-01	14.7477	19.514997	0.000449	4.486096	1.519930	-0.036409
 633	3.1600e-01	14.7253	19.332954	0.000449	4.486096	1.519930	-0.036409
 634	3.1650e-01	14.7028	19.478589	-0.000359	-3.588877	-1.215944	0.029127
 635	3.1700e-01	14.6980	19.187320	0.000718	7.177753	2.431889	-0.058254
 636	3.1750e-01	14.6370	19.478589	-0.000718	-7.177753	-2.431889	0.058254
 637	3.1800e-01	14.5729	19.150911	0.000807	8.074972	2.735875	-0.065535
 638	3.1850e-01	14.5343	18.968869	0.000449	4.486096	1.519930	-0.036409
 639	3.1900e-01	14.4830	18.968869	-0.000000	-0.000000	-0.000000	0.000000
 640	3.1950e-01	14.4541	18.968869	-0.000000	-0.000000	-0.000000	0.000000
 641	3.2000e-01	14.4092	18.495557	0.001166	11.663849	3.951819	-0.094662
 642	3.2050e-01	14.3819	18.459149	0.000090	0.897219	0.303986	-0.007282
 643	3.2100e-01	14.3130	18.568374	-0.000269	-2.691657	-0.911958	0.021845
 644	3.2150e-01	14.3001	18.313514	0.000628	6.280534	2.127903	-0.050972
 645	3.2200e-01	14.2568	18.131471	0.000449	4.486096	1.519930	-0.036409
 646	3.2250e-01	14.2167	18.095063	0.000090	0.897219	0.303986	-0.007282
 647	3.2300e-01	14.1830	18.277106	-0.000449	-4.486096	-1.519930	0.036409
 648	3.2350e-01	14.1365	18.167880	0.000269	2.691657	0.911958	-0.021845
 649	3.2400e-01	14.0980	17.913020	0.000628	6.280534	2.127903	-0.050972
 650	3.2450e-01	14.0611	17.913020	-0.000000	-0.000000	-0.000000	0.000000
 651	3.2500e-01	14.0290	17.767386	0.000359	3.588877	1.215944	-0.029127
 652	3.2550e-01	13.9632	17.658160	0.000269	2.691657	0.911958	-0.021845
 653	3.2600e-01	13.9504	17.694568	-0.000090	-0.897219	-0.303986	0.007282
 654	3.2650e-01	13.8878	17.184848	0.001256	12.561068	4.255805	-0.101944
 655	3.2700e-01	13.8911	17.221257	0.000090	0.897219	0.303986	0.007282
 656	3.2750e-01	13.8012	17.439708	-0.000538	-5.383315	-1.823916	0.043690
 657	3.2800e-01	13.7804	16.966397	0.001166	11.663849	3.951819	-0.094662
 658	3.2850e-01	13.7483	17.002805	-0.000090	-0.897219	-0.303986	0.007282
 659	3.2900e-01	13.7066	16.747945	0.000628	6.280534	2.127903	-0.050972
 660	3.2950e-01	13.6600	17.002805	-0.000628	-6.280534	-2.127903	0.050972
 661	3.3000e-01	13.6103	16.820763	0.000449	4.486096	1.519930	-0.036409
 662	3.3050e-01	13.5911	16.784354	0.000090	0.897219	0.303986	-0.007282
 663	3.3100e-01	13.5253	16.383860	0.000987	9.869411	3.343847	-0.080099
 664	3.3150e-01	13.4820	16.420268	-0.000090	-0.897219	-0.303986	0.007282
 665	3.3200e-01	13.4483	16.311042	0.000269	2.691657	0.911958	-0.021845
 666	3.3250e-01	13.4162	16.056182	0.000628	6.280534	2.127903	-0.050972
 667	3.3300e-01	13.3568	16.129000	-0.000179	-1.794438	-0.607972	0.014563
 668	3.3350e-01	13.3536	16.056182	0.000179	1.794438	0.607972	-0.014563
 669	3.3400e-01	13.2959	15.837731	0.000538	5.383315	1.823916	-0.043690
 670	3.3450e-01	13.2526	15.655688	0.000449	4.486096	1.519930	-0.036409
 671	3.3500e-01	13.1948	15.837731	-0.000449	-4.486096	-1.519930	0.036409
 672	3.3550e-01	13.1932	15.510054	0.000807	8.074972	2.735875	-0.065535
 673	3.3600e-01	13.1435	15.582871	-0.000179	-1.794438	-0.607972	0.014563
 674	3.3650e-01	13.1050	15.291602	0.000718	7.177753	2.431889	-0.058254
 675	3.3700e-01	13.0713	15.145968	0.000359	3.588877	1.215944	-0.029127
 676	3.3750e-01	13.0103	15.291602	-0.000359	-3.588877	-1.215944	0.029127
 677	3.3800e-01	12.9654	15.109559	0.000449	4.486096	1.519930	-0.036409
 678	3.3850e-01	12.9253	15.218785	-0.000269	-2.691657	-0.911958	0.021845
 679	3.3900e-01	12.9574	14.563431	-0.001615	-16.149945	-5.471749	-0.131071
 680	3.3950e-01	12.8483	14.709065	-0.000359	-3.588877	-1.215944	0.029127
 681	3.4000e-01	12.8419	14.672657	0.000090	0.897219	0.303986	-0.007282
 682	3.4050e-01	12.7761	14.527022	0.000359	3.588877	1.215944	-0.029127
 683	3.4100e-01	12.7264	14.490614	0.000090	0.897219	0.303986	-0.007282
 684	3.4150e-01	12.7168	14.344979	0.000359	3.588877	1.215944	-0.029127
 685	3.4200e-01	12.6718	14.053711	0.000718	7.177753	2.431889	-0.058254
 686	3.4250e-01	12.6269	13.944485	0.000269	2.691657	0.911958	-0.021845
 687	3.4300e-01	12.5708	13.944485	-0.000000	-0.000000	-0.000000	0.000000
 688	3.4350e-01	12.5291	13.653216	0.000718	7.177753	2.431889	-0.058254
 689	3.4400e-01	12.4857	13.835259	-0.000449	-4.486096	-1.519930	0.036409
 690	3.4450e-01	12.5002	13.325539	-0.001256	-12.561068	-4.255805	-0.101944
 691	3.4500e-01	12.4248	13.325539	-0.000000	-0.000000	-0.000000	0.000000
 692	3.4550e-01	12.3847	13.798851	-0.001166	-11.663849	-3.951819	0.094662
 693	3.4600e-01	12.3382	13.616808	0.000449	4.486096	1.519930	-0.036409
 694	3.4650e-01	12.2948	12.997862	0.001525	15.252725	5.167763	-0.123789
 695	3.4700e-01	12.2852	12.997862	-0.000000	-0.000000	-0.000000	0.000000
 696	3.4750e-01	12.2162	13.034271	-0.000090	-0.897219	-0.303986	0.007282
 697	3.4800e-01	12.1473	12.815819	0.000538	5.383315	1.823916	-0.043690
 698	3.4850e-01	12.1408	12.779411	0.000090	0.897219	0.303986	-0.007282
 699	3.4900e-01	12.1232	12.815819	-0.000090	-0.897219	-0.303986	0.007282
 700	3.4950e-01	12.0574	12.233282	0.001436	14.355506	4.863777	-0.116507
 701	3.5000e-01	12.0141	12.269690	-0.000090	-0.897219	-0.303986	0.007282
 702	3.5050e-01	11.9708	12.415325	-0.000359	-3.588877	-1.215944	0.029127
 703	3.5100e-01	11.9291	11.942013	0.001166	11.663849	3.951819	-0.094662
 704	3.5150e-01	11.8938	12.451733	-0.001256	-12.561068	-4.255805	0.101944
 705	3.5200e-01	11.8457	11.869196	0.001436	14.355506	4.863777	-0.116507
 706	3.5250e-01	11.8023	12.014830	-0.000359	-3.588877	-1.215944	0.029127
 707	3.5300e-01	11.7975	11.541519	0.001166	11.663849	3.951819	-0.094662
 708	3.5350e-01	11.7526	11.759970	-0.000538	-5.383315	-1.823916	0.043690
 709	3.5400e-01	11.7141	11.614336	0.000359	3.588877	1.215944	-0.029127
 710	3.5450e-01	11.6804	11.505110	0.000269	2.691657	0.911958	-0.021845
 711	3.5500e-01	11.6227	11.286659	0.000538	5.383315	1.823916	-0.043690
 712	3.5550e-01	11.5601	11.286659	-0.000000	-0.000000	-0.000000	0.000000
 713	3.5600e-01	11.5457	11.141025	0.000359	3.588877	1.215944	-0.029127
 714	3.5650e-01	11.5216	11.031799	0.000269	2.691657	0.911958	-0.021845
 715	3.5700e-01	11.4510	10.813347	0.000538	5.383315	1.823916	-0.043690
 716	3.5750e-01	11.4350	10.594896	0.000538	5.383315	1.823916	-0.043690
 717	3.5800e-01	11.3596	10.740530	-0.000359	-3.588877	-1.215944	0.029127
 718	3.5850e-01	11.3516	10.667713	0.000179	1.794438	0.607972	-0.014563
 719	3.5900e-01	11.3195	10.667713	-0.000000	-0.000000	-0.000000	0.000000
 720	3.5950e-01	11.2633	10.631304	0.000090	0.897219	0.303986	-0.007282
 721	3.6000e-01	11.2200	10.340036	0.000718	7.177753	2.431889	-0.058254
 722	3.6050e-01	11.1799	10.048767	0.000718	7.177753	2.431889	-0.058254
 723	3.6100e-01	11.1494	9.866724	0.000449	4.486096	1.519930	-0.036409
 724	3.6150e-01	11.0965	10.157993	-0.000718	-7.177753	-2.431889	0.058254
 725	3.6200e-01	11.0307	10.085176	0.000179	1.794438	0.607972	-0.014563
 726	3.6250e-01	11.0211	9.393413	0.001705	17.047164	5.775735	-0.138353
 727	3.6300e-01	10.9938	9.539047	-0.000359	-3.588877	-1.215944	0.029127
 728	3.6350e-01	10.9216	9.539047	-0.000000	-0.000000	-0.000000	0.000000
 729	3.6400e-01	10.9152	9.502639	0.000090	0.897219	0.303986	-0.007282
 730	3.6450e-01	10.8542	9.393413	0.000269	2.691657	0.911958	-0.021845
 731	3.6500e-01	10.8382	8.992919	0.000987	9.869411	3.343847	-0.080099
 732	3.6550e-01	10.7628	9.174961	-0.000449	-4.486096	-1.519930	0.036409
 733	3.6600e-01	10.7484	8.920101	0.000628	6.280534	2.127903	-0.050972
 734	3.6650e-01	10.7050	9.174961	-0.000628	-6.280534	-2.127903	0.050972
 735	3.6700e-01	10.6665	8.592424	0.001436	14.355506	4.863777	-0.116507
 736	3.6750e-01	10.6152	8.373973	0.000538	5.383315	1.823916	-0.043690
 737	3.6800e-01	10.5735	8.483198	-0.000269	-2.691657	-0.911958	0.021845
 738	3.6850e-01	10.5446	8.119113	0.000897	8.972191	3.039861	-0.072817
 739	3.6900e-01	10.4837	8.082704	0.000090	0.897219	0.303986	-0.007282
 740	3.6950e-01	10.4644	8.155521	-0.000179	-1.794438	-0.607972	0.014563
 741	3.7000e-01	10.4163	7.718618	0.001077	10.766630	3.647833	-0.087381
 742	3.7050e-01	10.3746	7.755027	-0.000090	-0.897219	-0.303986	0.007282
 743	3.7100e-01	10.3569	8.228338	-0.001166	-11.663849	-3.951819	0.094662
 744	3.7150e-01	10.2944	7.609393	0.001525	15.252725	5.167763	-0.123789
 745	3.7200e-01	10.2607	7.354533	0.000628	6.280534	2.127903	-0.050972
 746	3.7250e-01	10.2254	7.063264	0.000718	7.177753	2.431889	-0.058254
 747	3.7300e-01	10.1901	7.099673	-0.000090	-0.897219	-0.303986	0.007282
 748	3.7350e-01	10.1195	7.354533	-0.000628	-6.280534	-2.127903	0.050972
 749	3.7400e-01	10.1083	7.136081	0.000538	5.383315	1.823916	-0.043690
 750	3.7450e-01	10.0650	6.881221	0.000628	6.280534	2.127903	-0.050972
 751	3.7500e-01	10.0216	6.808404	0.000179	1.794438	0.607972	-0.014563
 752	3.7550e-01	10.0024	6.517135	0.000718	7.177753	2.431889	-0.058254
 753	3.7600e-01	9.9398	6.771995	-0.000628	-6.280534	-2.127903	0.050972
 754	3.7650e-01	9.8997	6.553544	0.000538	5.383315	1.823916	-0.043690
 755	3.7700e-01	9.8291	6.371501	0.000449	4.486096	1.519930	-0.036409
 756	3.7750e-01	9.8243	5.861781	0.001256	12.561068	4.255805	-0.101944
 757	3.7800e-01	9.7794	6.189458	-0.000807	-8.074972	-2.735875	0.065535
 758	3.7850e-01	9.7425	5.898189	0.000718	7.177753	2.431889	-0.058254
 759	3.7900e-01	9.7072	5.716147	0.000449	4.486096	1.519930	-0.036409
 760	3.7950e-01	9.6463	6.153050	-0.001077	-10.766630	-3.647833	0.087381
 761	3.8000e-01	9.6158	5.461287	0.001705	17.047164	5.775735	-0.138353
 762	3.8050e-01	9.5709	5.934598	-0.001166	-11.663849	-3.951819	0.094662
 763	3.8100e-01	9.5372	5.570512	0.000897	8.972191	3.039861	-0.072817
 764	3.8150e-01	9.4650	5.606921	-0.000090	-0.897219	-0.303986	0.007282
 765	3.8200e-01	9.4505	5.315652	0.000718	7.177753	2.431889	-0.058254
 766	3.8250e-01	9.4185	4.951566	0.000897	8.972191	3.039861	-0.072817
 767	3.8300e-01	9.3655	4.915158	0.000090	0.897219	0.303986	-0.007282
 768	3.8350e-01	9.3527	5.060792	-0.000359	-3.588877	-1.215944	0.029127
 769	3.8400e-01	9.2997	4.769524	0.000718	7.177753	2.431889	-0.058254
 770	3.8450e-01	9.2789	4.660298	0.000269	2.691657	0.911958	-0.021845
 771	3.8500e-01	9.2131	4.441846	0.000538	5.383315	1.823916	-0.043690
 772	3.8550e-01	9.1714	4.004943	0.001077	10.766630	3.647833	-0.087381
 773	3.8600e-01	9.1457	4.150578	-0.000359	-3.588877	-1.215944	0.029127
 774	3.8650e-01	9.1088	4.296212	-0.000359	-3.588877	-1.215944	0.029127
 775	3.8700e-01	9.0575	3.968535	0.000807	8.074972	2.735875	-0.065535
 776	3.8750e-01	9.0014	4.223395	-0.000628	-6.280534	-2.127903	0.050972
 777	3.8800e-01	8.9821	3.895718	0.000807	8.074972	2.735875	-0.065535
 778	3.8850e-01	8.9596	3.750083	0.000359	3.588877	1.215944	-0.029127
 779	3.8900e-01	8.8939	3.750083	-0.000000	-0.000000	-0.000000	0.000000
 780	3.8950e-01	8.8698	3.531632	0.000538	5.383315	1.823916	-0.043690
 781	3.9000e-01	8.8153	3.276772	0.000628	6.280534	2.127903	-0.050972
 782	3.9050e-01	8.7703	3.094729	0.000449	4.486096	1.519930	-0.036409
 783	3.9100e-01	8.7463	3.422406	-0.000807	-8.074972	-2.735875	0.065535
 784	3.9150e-01	8.6885	3.313181	0.000269	2.691657	0.911958	-0.021845
 785	3.9200e-01	8.6629	2.985503	0.000807	8.074972	2.735875	-0.065535
 786	3.9250e-01	8.6388	2.839869	0.000359	3.588877	1.215944	-0.029127
 787	3.9300e-01	8.5666	2.694235	0.000359	3.588877	1.215944	-0.029127
 788	3.9350e-01	8.5217	2.694235	-0.000000	-0.000000	-0.000000	0.000000
 789	3.9400e-01	8.5105	2.220923	0.001166	11.663849	3.951819	-0.094662
 790	3.9450e-01	8.4447	2.184515	0.000090	0.897219	0.303986	-0.007282
 791	3.9500e-01	8.3950	2.293740	-0.000269	-2.691657	-0.911958	0.021845
 792	3.9550e-01	8.3950	2.257332	0.000090	0.897219	0.303986	-0.007282
 793	3.9600e-01	8.3340	2.148106	0.000269	2.691657	0.911958	-0.021845
 794	3.9650e-01	8.3019	1.784020	0.000897	8.972191	3.039861	-0.072817
 795	3.9700e-01	8.2506	1.128666	0.001615	16.149945	5.471749	-0.131071
 796	3.9750e-01	8.2490	1.310709	-0.000449	-4.486096	-1.519930	0.036409
 797	3.9800e-01	8.1848	1.383526	-0.000179	-1.794438	-0.607972	0.014563
 798	3.9850e-01	8.1527	0.946623	0.001077	10.766630	3.647833	-0.087381
 799	3.9900e-01	8.0725	1.055849	-0.000269	-2.691657	-0.911958	0.021845
 800	3.9950e-01	8.0805	1.237892	0.000449	4.486096	1.519930	0.036409
 801	4.0000e-01	8.0019	0.546129	0.001705	17.047164	5.775735	-0.138353
 802	4.0050e-01	8.0083	0.728172	0.000449	4.486096	1.519930	0.036409
 803	4.0100e-01	7.9313	0.837397	-0.000269	-2.691657	-0.911958	0.021845
 804	4.0150e-01	7.8784	0.327677	0.001256	12.561068	4.255805	-0.101944
 805	4.0200e-01	7.8479	0.291269	0.000090	0.897219	0.303986	-0.007282
 806	4.0250e-01	7.8591	0.254860	-0.000090	-0.897219	-0.303986	-0.007282
 807	4.0300e-01	7.7693	0.291269	-0.000090	-0.897219	-0.303986	0.007282
 808	4.0350e-01	7.7565	-0.036409	0.000807	8.074972	2.735875	-0.065535
 809	4.0400e-01	7.6779	-0.327677	0.000718	7.177753	2.431889	-0.058254
 810	4.0450e-01	7.6811	-0.036409	0.000718	7.177753	2.431889	0.058254
 811	4.0500e-01	7.6057	-0.582537	0.001346	13.458287	4.559791	-0.109226
 812	4.0550e-01	7.5607	-0.509720	-0.000179	-1.794438	-0.607972	0.014563
 813	4.0600e-01	7.5543	-0.618946	0.000269	2.691657	0.911958	-0.021845
 814	4.0650e-01	7.5174	-0.800989	0.000449	4.486096	1.519930	-0.036409
 815	4.0700e-01	7.4452	-0.983032	0.000449	4.486096	1.519930	-0.036409
 816	4.0750e-01	7.4308	-0.837397	-0.000359	-3.588877	-1.215944	0.029127
 817	4.0800e-01	7.3682	-1.019440	0.000449	4.486096	1.519930	-0.036409
 818	4.0850e-01	7.3602	-1.456343	0.001077	10.766630	3.647833	-0.087381
 819	4.0900e-01	7.2961	-1.383526	-0.000179	-1.794438	-0.607972	0.014563
 820	4.0950e-01	7.2736	-1.492752	0.000269	2.691657	0.911958	-0.021845
 821	4.1000e-01	7.2078	-1.784020	0.000718	7.177753	2.431889	-0.058254
 822	4.1050e-01	7.2142	-1.747612	0.000090	0.897219	0.303986	0.007282
 823	4.1100e-01	7.1436	-1.638386	-0.000269	-2.691657	-0.911958	0.021845
 824	4.1150e-01	7.0971	-2.366558	0.001794	17.944383	6.079721	-0.145634
 825	4.1200e-01	7.0362	-1.929655	-0.001077	-10.766630	-3.647833	0.087381
 826	4.1250e-01	7.0025	-2.439375	0.001256	12.561068	4.255805	-0.101944
 827	4.1300e-01	6.9800	-2.475783	0.000090	0.897219	0.303986	-0.007282
 828	4.1350e-01	6.9463	-2.621418	0.000359	3.588877	1.215944	-0.029127
 829	4.1400e-01	6.8950	-2.767052	0.000359	3.588877	1.215944	-0.029127
 830	4.1450e-01	6.8485	-2.475783	-0.000718	-7.177753	-2.431889	0.058254
 831	4.1500e-01	6.8260	-2.839869	0.000897	8.972191	3.039861	-0.072817
 832	4.1550e-01	6.7763	-3.094729	0.000628	6.280534	2.127903	-0.050972
 833	4.1600e-01	6.7410	-2.912686	-0.000449	-4.486096	-1.519930	0.036409
 834	4.1650e-01	6.7009	-3.349589	0.001077	10.766630	3.647833	-0.087381
 835	4.1700e-01	6.6447	-3.349589	-0.000000	-0.000000	-0.000000	0.000000
 836	4.1750e-01	6.6175	-3.822901	0.001166	11.663849	3.951819	-0.094662
 837	4.1800e-01	6.5806	-3.750083	-0.000179	-1.794438	-0.607972	0.014563
 838	4.1850e-01	6.5405	-3.786492	0.000090	0.897219	0.303986	-0.007282
 839	4.1900e-01	6.5004	-4.369029	0.001436	14.355506	4.863777	-0.116507
 840	4.1950e-01	6.4843	-4.150578	-0.000538	-5.383315	-1.823916	0.043690
 841	4.2000e-01	6.4153	-4.150578	-0.000000	-0.000000	-0.000000	0.000000
 842	4.2050e-01	6.3784	-4.478255	0.000807	8.074972	2.735875	-0.065535
 843	4.2100e-01	6.3415	-4.296212	-0.000449	-4.486096	-1.519930	0.036409
 844	4.2150e-01	6.3078	-4.696706	0.000987	9.869411	3.343847	-0.080099
 845	4.2200e-01	6.2581	-4.514664	-0.000449	-4.486096	-1.519930	0.036409
 846	4.2250e-01	6.2453	-4.915158	0.000987	9.869411	3.343847	-0.080099
 847	4.2300e-01	6.1763	-4.696706	-0.000538	-5.383315	-1.823916	0.043690
 848	4.2350e-01	6.1619	-5.060792	0.000897	8.972191	3.039861	-0.072817
 849	4.2400e-01	6.0881	-5.170018	0.000269	2.691657	0.911958	-0.021845
 850	4.2450e-01	6.0576	-5.352061	0.000449	4.486096	1.519930	-0.036409
 851	4.2500e-01	6.0159	-5.315652	-0.000090	-0.897219	-0.303986	0.007282
 852	4.2550e-01	5.9726	-5.898189	0.001436	14.355506	4.863777	-0.116507
 853	4.2600e-01	5.9501	-5.716147	-0.000449	-4.486096	-1.519930	0.036409
 854	4.2650e-01	5.8988	-6.116641	0.000987	9.869411	3.343847	-0.080099
 855	4.2700e-01	5.8266	-5.934598	-0.000449	-4.486096	-1.519930	0.036409
 856	4.2750e-01	5.8025	-6.116641	0.000449	4.486096	1.519930	-0.036409
 857	4.2800e-01	5.7752	-6.116641	-0.000000	-0.000000	-0.000000	0.000000
 858	4.2850e-01	5.7480	-6.371501	0.000628	6.280534	2.127903	-0.050972
 859	4.2900e-01	5.7047	-6.881221	0.001256	12.561068	4.255805	-0.101944
 860	4.2950e-01	5.6694	-6.371501	-0.001256	-12.561068	-4.255805	0.101944
 861	4.3000e-01	5.6132	-6.917630	0.001346	13.458287	4.559791	-0.109226
 862	4.3050e-01	5.5875	-7.136081	0.000538	5.383315	1.823916	-0.043690
 863	4.3100e-01	5.5667	-6.954038	-0.000449	-4.486096	-1.519930	0.036409
 864	4.3150e-01	5.5009	-7.099673	0.000359	3.588877	1.215944	-0.029127
 865	4.3200e-01	5.4544	-7.427350	0.000807	8.074972	2.735875	-0.065535
 866	4.3250e-01	5.4335	-7.390941	-0.000090	-0.897219	-0.303986	0.007282
 867	4.3300e-01	5.3581	-7.791435	0.000987	9.869411	3.343847	-0.080099
 868	4.3350e-01	5.3357	-7.609393	-0.000449	-4.486096	-1.519930	0.036409
 869	4.3400e-01	5.2811	-8.082704	0.001166	11.663849	3.951819	-0.094662
 870	4.3450e-01	5.2843	-7.827844	0.000628	6.280534	2.127903	0.050972
 871	4.3500e-01	5.2186	-8.082704	0.000628	6.280534	2.127903	-0.050972
 872	4.3550e-01	5.1817	-8.519607	0.001077	10.766630	3.647833	-0.087381
 873	4.3600e-01	5.1544	-8.665241	0.000359	3.588877	1.215944	-0.029127
 874	4.3650e-01	5.1319	-8.519607	-0.000359	-3.588877	-1.215944	0.029127
 875	4.3700e-01	5.0565	-8.810876	0.000718	7.177753	2.431889	-0.058254
 876	4.3750e-01	5.0357	-8.519607	-0.000718	-7.177753	-2.431889	0.058254
 877	4.3800e-01	4.9892	-9.102144	0.001436	14.355506	4.863777	-0.116507
 878	4.3850e-01	4.9426	-8.920101	-0.000449	-4.486096	-1.519930	0.036409
 879	4.3900e-01	4.9122	-9.247779	0.000807	8.074972	2.735875	-0.065535
 880	4.3950e-01	4.8945	-9.539047	0.000718	7.177753	2.431889	-0.058254
 881	4.4000e-01	4.8287	-9.502639	-0.000090	-0.897219	-0.303986	0.007282
 882	4.4050e-01	4.7742	-9.684681	0.000449	4.486096	1.519930	-0.036409
 883	4.4100e-01	4.7630	-9.975950	0.000718	7.177753	2.431889	-0.058254
 884	4.4150e-01	4.6651	-9.975950	-0.000000	-0.000000	-0.000000	0.000000
 885	4.4200e-01	4.6459	-10.194402	0.000538	5.383315	1.823916	-0.043690
 886	4.4250e-01	4.6074	-10.412853	0.000538	5.383315	1.823916	-0.043690
 887	4.4300e-01	4.5801	-10.412853	-0.000000	-0.000000	-0.000000	0.000000
 888	4.4350e-01	4.5689	-10.485670	0.000179	1.794438	0.607972	-0.014563
 889	4.4400e-01	4.5063	-10.412853	-0.000179	-1.794438	-0.607972	0.014563
 890	4.4450e-01	4.4630	-10.813347	0.000987	9.869411	3.343847	-0.080099
 891	4.4500e-01	4.4148	-11.068207	0.000628	6.280534	2.127903	-0.050972
 892	4.4550e-01	4.3651	-10.740530	-0.000807	-8.074972	-2.735875	0.065535
 893	4.4600e-01	4.3330	-11.104616	0.000897	8.972191	3.039861	-0.072817
 894	4.4650e-01	4.2993	-11.177433	0.000179	1.794438	0.607972	-0.014563
 895	4.4700e-01	4.2721	-11.395885	0.000538	5.383315	1.823916	-0.043690
 896	4.4750e-01	4.1983	-12.087648	0.001705	17.047164	5.775735	-0.138353
 897	4.4800e-01	4.1678	-11.541519	-0.001346	-13.458287	-4.559791	0.109226
 898	4.4850e-01	4.1293	-11.723562	0.000449	4.486096	1.519930	-0.036409
 899	4.4900e-01	4.0956	-12.051239	0.000807	8.074972	2.735875	-0.065535
 900	4.4950e-01	4.0539	-12.342508	0.000718	7.177753	2.431889	-0.058254
 901	4.5000e-01	4.0234	-12.160465	-0.000449	-4.486096	-1.519930	0.036409
 902	4.5050e-01	3.9737	-12.378916	0.000538	5.383315	1.823916	-0.043690
 903	4.5100e-01	3.9496	-12.560959	0.000449	4.486096	1.519930	-0.036409
 904	4.5150e-01	3.8806	-12.743002	0.000449	4.486096	1.519930	-0.036409
 905	4.5200e-01	3.8357	-12.852228	0.000269	2.691657	0.911958	-0.021845
 906	4.5250e-01	3.8325	-13.107088	0.000628	6.280534	2.127903	-0.050972
 907	4.5300e-01	3.7764	-13.289131	0.000449	4.486096	1.519930	-0.036409
 908	4.5350e-01	3.7347	-13.216313	-0.000179	-1.794438	-0.607972	0.014563
 909	4.5400e-01	3.7090	-13.580399	0.000897	8.972191	3.039861	-0.072817
 910	4.5450e-01	3.6673	-13.434765	-0.000359	-3.588877	-1.215944	0.029127
 911	4.5500e-01	3.6175	-14.126528	0.001705	17.047164	5.775735	-0.138353
 912	4.5550e-01	3.5774	-13.798851	-0.000807	-8.074972	-2.735875	0.065535
 913	4.5600e-01	3.5421	-14.162936	0.000897	8.972191	3.039861	-0.072817
 914	4.5650e-01	3.4924	-14.090119	-0.000179	-1.794438	-0.607972	0.014563
 915	4.5700e-01	3.4539	-14.490614	0.000987	9.869411	3.343847	-0.080099
 916	4.5750e-01	3.4010	-14.490614	-0.000000	-0.000000	-0.000000	0.000000
 917	4.5800e-01	3.3865	-14.599839	0.000269	2.691657	0.911958	-0.021845
 918	4.5850e-01	3.3689	-14.781882	0.000449	4.486096	1.519930	-0.036409
 919	4.5900e-01	3.2871	-14.745474	-0.000090	-0.897219	-0.303986	0.007282
 920	4.5950e-01	3.2229	-14.963925	0.000538	5.383315	1.823916	-0.043690
 921	4.6000e-01	3.2502	-15.437237	-0.001166	-11.663849	-3.951819	-0.094662
 922	4.6050e-01	3.1828	-15.437237	-0.000000	-0.000000	-0.000000	0.000000
 923	4.6100e-01	3.1363	-15.182377	-0.000628	-6.280534	-2.127903	0.050972
 924	4.6150e-01	3.1122	-15.546462	0.000897	8.972191	3.039861	-0.072817
 925	4.6200e-01	3.0577	-15.619280	0.000179	1.794438	0.607972	-0.014563
 926	4.6250e-01	3.0160	-16.129000	0.001256	12.561068	4.255805	-0.101944
 927	4.6300e-01	2.9775	-16.165408	0.000090	0.897219	0.303986	-0.007282
 928	4.6350e-01	2.9486	-16.274634	0.000269	2.691657	0.911958	-0.021845
 929	4.6400e-01	2.9117	-16.675128	0.000987	9.869411	3.343847	-0.080099
 930	4.6450e-01	2.8652	-16.493085	-0.000449	-4.486096	-1.519930	0.036409
 931	4.6500e-01	2.8363	-16.711537	0.000538	5.383315	1.823916	-0.043690
 932	4.6550e-01	2.7978	-16.711537	-0.000000	-0.000000	-0.000000	0.000000
 933	4.6600e-01	2.7224	-16.711537	-0.000000	-0.000000	-0.000000	0.000000
 934	4.6650e-01	2.7031	-17.184848	0.001166	11.663849	3.951819	-0.094662
 935	4.6700e-01	2.6518	-17.257665	0.000179	1.794438	0.607972	-0.014563
 936	4.6750e-01	2.6229	-17.257665	-0.000000	-0.000000	-0.000000	0.000000
 937	4.6800e-01	2.5973	-17.294074	0.000090	0.897219	0.303986	-0.007282
 938	4.6850e-01	2.5571	-17.694568	0.000987	9.869411	3.343847	-0.080099
 939	4.6900e-01	2.5074	-17.913020	0.000538	5.383315	1.823916	-0.043690
 940	4.6950e-01	2.4737	-17.913020	-0.000000	-0.000000	-0.000000	0.000000
 941	4.7000e-01	2.4481	-17.985837	0.000179	1.794438	0.607972	-0.014563
 942	4.7050e-01	2.3855	-18.422740	0.001077	10.766630	3.647833	-0.087381
 943	4.7100e-01	2.3486	-18.313514	-0.000269	-2.691657	-0.911958	0.021845
 944	4.7150e-01	2.2812	-18.750417	0.001077	10.766630	3.647833	-0.087381
 945	4.7200e-01	2.2523	-18.495557	-0.000628	-6.280534	-2.127903	0.050972
 946	4.7250e-01	2.2235	-18.932460	0.001077	10.766630	3.647833	-0.087381
 947	4.7300e-01	2.1545	-19.114503	0.000449	4.486096	1.519930	-0.036409
 948	4.7350e-01	2.1417	-19.114503	-0.000000	-0.000000	-0.000000	0.000000
 949	4.7400e-01	2.1048	-19.296546	0.000449	4.486096	1.519930	-0.036409
 950	4.7450e-01	2.0743	-19.478589	0.000449	4.486096	1.519930	-0.036409
 951	4.7500e-01	2.0069	-19.769857	0.000718	7.177753	2.431889	-0.058254
 952	4.7550e-01	1.9540	-19.879083	0.000269	2.691657	0.911958	-0.021845
 953	4.7600e-01	1.9395	-19.697040	-0.000449	-4.486096	-1.519930	0.036409
 954	4.7650e-01	1.9058	-20.279577	0.001436	14.355506	4.863777	-0.116507
 955	4.7700e-01	1.8481	-20.061126	-0.000538	-5.383315	-1.823916	0.043690
 956	4.7750e-01	1.8144	-20.279577	0.000538	5.383315	1.823916	-0.043690
 957	4.7800e-01	1.7871	-20.607255	0.000807	8.074972	2.735875	-0.065535
 958	4.7850e-01	1.7502	-20.680072	0.000179	1.794438	0.607972	-0.014563
 959	4.7900e-01	1.6844	-20.643663	-0.000090	-0.897219	-0.303986	0.007282
 960	4.7950e-01	1.6700	-20.825706	0.000449	4.486096	1.519930	-0.036409
 961	4.8000e-01	1.6620	-21.299018	0.001166	11.663849	3.951819	-0.094662
 962	4.8050e-01	1.5962	-21.335426	0.000090	0.897219	0.303986	-0.007282
 963	4.8100e-01	1.5385	-21.481060	0.000359	3.588877	1.215944	-0.029127
 964	4.8150e-01	1.5192	-21.517469	0.000090	0.897219	0.303986	-0.007282
 965	4.8200e-01	1.4599	-21.626695	0.000269	2.691657	0.911958	-0.021845
 966	4.8250e-01	1.4197	-21.590286	-0.000090	-0.897219	-0.303986	0.007282
 967	4.8300e-01	1.3909	-22.282049	0.001705	17.047164	5.775735	-0.138353
 968	4.8350e-01	1.3187	-22.027189	-0.000628	-6.280534	-2.127903	0.050972
 969	4.8400e-01	1.2850	-22.245641	0.000538	5.383315	1.823916	-0.043690
 970	4.8450e-01	1.2593	-22.536909	0.000718	7.177753	2.431889	-0.058254
 971	4.8500e-01	1.2385	-22.609726	0.000179	1.794438	0.607972	-0.014563
 972	4.8550e-01	1.1631	-22.828178	0.000538	5.383315	1.823916	-0.043690
 973	4.8600e-01	1.1470	-22.900995	0.000179	1.794438	0.607972	-0.014563
 974	4.8650e-01	1.0989	-22.973812	0.000179	1.794438	0.607972	-0.014563
 975	4.8700e-01	1.0700	-23.228672	0.000628	6.280534	2.127903	-0.050972
 976	4.8750e-01	1.0155	-23.519941	0.000718	7.177753	2.431889	-0.058254
 977	4.8800e-01	0.9706	-23.556349	0.000090	0.897219	0.303986	-0.007282
 978	4.8850e-01	0.9593	-23.629166	0.000179	1.794438	0.607972	-0.014563
 979	4.8900e-01	0.9224	-23.847618	0.000538	5.383315	1.823916	-0.043690
 980	4.8950e-01	0.8631	-23.993252	0.000359	3.588877	1.215944	-0.029127
 981	4.9000e-01	0.8358	-24.175295	0.000449	4.486096	1.519930	-0.036409
 982	4.9050e-01	0.8117	-24.393747	0.000538	5.383315	1.823916	-0.043690
 983	4.9100e-01	0.7524	-24.757832	0.000897	8.972191	3.039861	-0.072817
 984	4.9150e-01	0.6818	-24.612198	-0.000359	-3.588877	-1.215944	0.029127
 985	4.9200e-01	0.6658	-25.085510	0.001166	11.663849	3.951819	-0.094662
 986	4.9250e-01	0.6449	-25.049101	-0.000090	-0.897219	-0.303986	0.007282
 987	4.9300e-01	0.5791	-25.194735	0.000359	3.588877	1.215944	-0.029127
 988	4.9350e-01	0.5390	-25.413187	0.000538	5.383315	1.823916	-0.043690
 989	4.9400e-01	0.5037	-25.340370	-0.000179	-1.794438	-0.607972	0.014563
 990	4.9450e-01	0.4540	-25.558821	0.000538	5.383315	1.823916	-0.043690
 991	4.9500e-01	0.4139	-25.595230	0.000090	0.897219	0.303986	-0.007282
 992	4.9550e-01	0.3962	-25.740864	0.000359	3.588877	1.215944	-0.029127
 993	4.9600e-01	0.3337	-26.250584	0.001256	12.561068	4.255805	-0.101944
 994	4.9650e-01	0.2936	-26.068541	-0.000449	-4.486096	-1.519930	0.036409
 995	4.9700e-01	0.2438	-26.541853	0.001166	11.663849	3.951819	-0.094662
 996	4.9750e-01	0.2262	-26.614670	0.000179	1.794438	0.607972	-0.014563
 997	4.9800e-01	0.1765	-26.723895	0.000269	2.691657	0.911958	-0.021845
 998	4.9850e-01	0.1299	-26.833121	0.000269	2.691657	0.911958	-0.021845
 999	4.9900e-01	0.1171	-27.015164	0.000449	4.486096	1.519930	-0.036409
1000	4.9950e-01	0.0417	-27.051573	0.000090	0.897219	0.303986	-0.007282
1001	5.0000e-01	0.0754	-27.415658	0.000090	0.897219	0.303986	-0.072817

PMax (uC/cm2):	6.27e+01
Pr (uC/cm2):	4.04e+00
-Pr (uC/cm2):	0.00e+00
PLoss (uC/cm2):	0.00e+00
C (Max-Eff) (nF):	3.13e-01
K (Eff):	1.06e+03
Vert. (+/-Pr) Shift (uC/cm2):	2.02e+00
Offset (uC/cm2):	3.15e+01

A (Loop Area - uC/cm2·Volts):	-1.34e-01



Hysteresis Version: 5.48.1 - Radiant Technologies, Inc., 1999 - 9/12/24

