»»»»»»»»»»»»»»»»»»»»»»»»»»»»»»»»»»»» Hysteresis ««««««««««««««««««««««««««««««««««««
»»»  Executed Version:	5.48.1
»»»  Vision Version:	5.48.4 (R)
»»»  Vision Compiled:	9/18/24
»»»  Driver Version:	5.47.0
»»»  Windows Version:	Windows 8 or 8.1
»»»  Processor Information:	x86 (AMD or Intel) - 32 Processors
»»»  Tester Name:	PMF21124-494 (100V)
»»»  Tester S/N:	PMF21124-494
»»»  Internal Amp Type:	100V RevK 270k
»»»  Internal Amp S/N:	iAB2-596/K     
»»»  Execution Count:	1
»»»»»»»»»»»»»»»»»»»»»»»»»»»»»»»»»»»»»»»»»»««««««««««««««««««««««««««««««««««««««««««

Stored:	10/10/2025 - 18:9:28
Configured:	10/10/25 10:37:25 AM
Executed:	10/10/25 06:08:47 PM

»»»»»»»»»»»»»»»»»»»»»»»»»»»»»»»»»»» Sample Info ««««««««««««««««««««««««««««««««««««
Sample Name:	Int. Ref. Ferroelectric
Lot Name:	N/A
Wafer Name:	N/A
Die Row/Column:	0/0
Capacitor Number:	0
Sample Area (cm2):	1.00e-04
Sample Thickness (microns):	3.00e-01

Amplifier:	Internal

»»»»»»»»»»»»»»»»»»»»»»»»»»»»»»»»»»» Tester Info «««««««««««««««««««««««««««««««««««
Tester Name:	PMF21124-494 (100V)
Tester Serial Number:	PMF21124-494
Return Signal Amp. Level:	0.2 [Index: 1]

»»»»»»»»»»»»»»»»»»»»»»»»»»»»»»»» Hysteresis Info ««««««««««««««««««««««««««««««««««
Task Name:	'
Volts:	20.00
Field:	666.67 (kV/cm)
DCBias:	0.00
DCField:	0.00 (kV/cm)
Hysteresis Period (ms):	5.00e-01
Preset:	DisabledProfile:	Standard Monopolar

»»»»»»»»»»»»»»»»»»»»»»»»»»»»»»»»»»»»»» Data «««««««««««««««««««««««««««««««««««««««
Points:	1001

Valid Data

Point	Time (ms)	Drive Voltage	Measured Polarization (uC/cm2)	Capacitance (uF)	Normalized Capacitance (uF/cm2)	Dielectric Constant	Instantaneous Current (mA)
   1	0.0000e+00	0.0369	-28.331334	0.000199	1.992800	0.675179	0.016020
   2	5.0000e-04	0.0834	-28.251235	0.000199	1.992800	0.675179	0.016020
   3	1.0000e-03	0.1203	-28.021861	0.000571	5.706654	1.933467	0.045875
   4	1.5000e-03	0.1765	-27.814332	0.000516	5.163163	1.749327	0.041506
   5	2.0000e-03	0.2053	-27.774283	0.000100	0.996400	0.337589	0.008010
   6	2.5000e-03	0.2615	-27.817973	-0.000109	-1.086982	-0.368279	-0.008738
   7	3.0000e-03	0.3112	-27.533986	0.000707	7.065381	2.393816	0.056797
   8	3.5000e-03	0.3241	-27.486655	0.000118	1.177563	0.398969	0.009466
   9	4.0000e-03	0.3610	-27.151696	0.000833	8.333526	2.823475	0.066992
  10	4.5000e-03	0.3978	-27.100724	0.000127	1.268145	0.429659	0.010194
  11	5.0000e-03	0.4235	-26.834942	0.000661	6.612472	2.240366	0.053157
  12	5.5000e-03	0.4749	-26.773047	0.000154	1.539891	0.521729	0.012379
  13	6.0000e-03	0.5118	-26.689307	0.000208	2.083381	0.705869	0.016748
  14	6.5000e-03	0.5855	-26.569159	0.000299	2.989199	1.012768	0.024030
  15	7.0000e-03	0.5743	-26.354348	-0.000534	-5.344326	-1.810707	0.042962
  16	7.5000e-03	0.6433	-26.154101	0.000498	4.981999	1.687947	0.040049
  17	8.0000e-03	0.6722	-26.194151	-0.000100	-0.996400	-0.337589	-0.008010
  18	8.5000e-03	0.7363	-26.008467	0.000462	4.619672	1.565187	0.037137
  19	9.0000e-03	0.7556	-25.815501	0.000480	4.800835	1.626567	0.038593
  20	9.5000e-03	0.7893	-25.684431	0.000326	3.260945	1.104838	0.026214
  21	1.0000e-02	0.8262	-25.553360	0.000326	3.260945	1.104838	0.026214
  22	1.0500e-02	0.8647	-25.444134	0.000272	2.717454	0.920698	0.021845
  23	1.1000e-02	0.9160	-25.243887	0.000498	4.981999	1.687947	0.040049
  24	1.1500e-02	0.9754	-25.167429	0.000190	1.902218	0.644489	0.015292
  25	1.2000e-02	1.0026	-24.952618	0.000534	5.344326	1.810707	0.042962
  26	1.2500e-02	1.0395	-24.810625	0.000353	3.532690	1.196908	0.028399
  27	1.3000e-02	1.0829	-24.639504	0.000426	4.257345	1.442427	0.034224
  28	1.3500e-02	1.1422	-24.541201	0.000245	2.445709	0.828629	0.019661
  29	1.4000e-02	1.1743	-24.337313	0.000507	5.072581	1.718637	0.040778
  30	1.4500e-02	1.2048	-24.289982	0.000118	1.177563	0.398969	0.009466
  31	1.5000e-02	1.2160	-24.126144	0.000408	4.076181	1.381048	0.032768
  32	1.5500e-02	1.2673	-23.973228	0.000380	3.804436	1.288978	0.030583
  33	1.6000e-02	1.3058	-23.791185	0.000453	4.529090	1.534497	0.036409
  34	1.6500e-02	1.3700	-23.692881	0.000245	2.445709	0.828629	0.019661
  35	1.7000e-02	1.4133	-23.576374	0.000290	2.898618	0.982078	0.023301
  36	1.7500e-02	1.4486	-23.383409	0.000480	4.800835	1.626567	0.038593
  37	1.8000e-02	1.4759	-23.328796	0.000136	1.358727	0.460349	0.010923
  38	1.8500e-02	1.5096	-23.092140	0.000589	5.887817	1.994846	0.047331
  39	1.9000e-02	1.5673	-22.993837	0.000245	2.445709	0.828629	0.019661
  40	1.9500e-02	1.6139	-22.808153	0.000462	4.619672	1.565187	0.037137
  41	2.0000e-02	1.6508	-22.677082	0.000326	3.260945	1.104838	0.026214
  42	2.0500e-02	1.6684	-22.596983	0.000199	1.992800	0.675179	0.016020
  43	2.1000e-02	1.7262	-22.447708	0.000371	3.713854	1.258288	0.029855
  44	2.1500e-02	1.7631	-22.240179	0.000516	5.163163	1.749327	0.041506
  45	2.2000e-02	1.7855	-22.149158	0.000226	2.264545	0.767249	0.018204
  46	2.2500e-02	1.8593	-22.010805	0.000344	3.442108	1.166218	0.027671
  47	2.3000e-02	1.8850	-21.857889	0.000380	3.804436	1.288978	0.030583
  48	2.3500e-02	1.9010	-21.697691	0.000399	3.985599	1.350358	0.032040
  49	2.4000e-02	1.9716	-21.552057	0.000362	3.623272	1.227598	0.029127
  50	2.4500e-02	1.9941	-21.380937	0.000426	4.257345	1.442427	0.034224
  51	2.5000e-02	2.0454	-21.297197	0.000208	2.083381	0.705869	0.016748
  52	2.5500e-02	2.1096	-21.147922	0.000371	3.713854	1.258288	0.029855
  53	2.6000e-02	2.1272	-21.045978	0.000254	2.536290	0.859318	0.020389
  54	2.6500e-02	2.1625	-20.845731	0.000498	4.981999	1.687947	0.040049
  55	2.7000e-02	2.1866	-20.707378	0.000344	3.442108	1.166218	0.027671
  56	2.7500e-02	2.2299	-20.601793	0.000263	2.626872	0.890008	0.021117
  57	2.8000e-02	2.2957	-20.408828	0.000480	4.800835	1.626567	0.038593
  58	2.8500e-02	2.3406	-20.234067	0.000435	4.347926	1.473117	0.034952
  59	2.9000e-02	2.3406	-20.150327	-0.000208	-2.083381	-0.705869	0.016748
  60	2.9500e-02	2.4047	-19.968284	0.000453	4.529090	1.534497	0.036409
  61	3.0000e-02	2.4529	-19.953721	0.000036	0.362327	0.122760	0.002913
  62	3.0500e-02	2.4721	-19.757114	0.000489	4.891417	1.657257	0.039321
  63	3.1000e-02	2.4769	-19.615121	0.000353	3.532690	1.196908	0.028399
  64	3.1500e-02	2.5860	-19.393029	0.000553	5.525490	1.872087	0.044418
  65	3.2000e-02	2.6133	-19.331134	0.000154	1.539891	0.521729	0.012379
  66	3.2500e-02	2.6406	-19.160014	0.000426	4.257345	1.442427	0.034224
  67	3.3000e-02	2.6903	-18.941562	0.000543	5.434908	1.841397	0.043690
  68	3.3500e-02	2.7047	-18.894231	0.000118	1.177563	0.398969	0.009466
  69	3.4000e-02	2.8010	-18.821414	0.000181	1.811636	0.613799	0.014563
  70	3.4500e-02	2.7898	-18.650294	-0.000426	-4.257345	-1.442427	0.034224
  71	3.5000e-02	2.8636	-18.359025	0.000725	7.246544	2.455196	0.058254
  72	3.5500e-02	2.8988	-18.369948	-0.000027	-0.271745	-0.092070	-0.002185
  73	3.6000e-02	2.9341	-18.257081	0.000281	2.808036	0.951388	0.022573
  74	3.6500e-02	2.9390	-18.082320	0.000435	4.347926	1.473117	0.034952
  75	3.7000e-02	2.9951	-17.933045	0.000371	3.713854	1.258288	0.029855
  76	3.7500e-02	3.0416	-17.783769	0.000371	3.713854	1.258288	0.029855
  77	3.8000e-02	3.0737	-17.703671	0.000199	1.992800	0.675179	0.016020
  78	3.8500e-02	3.1266	-17.477937	0.000562	5.616072	1.902777	0.045147
  79	3.9000e-02	3.1603	-17.274049	0.000507	5.072581	1.718637	0.040778
  80	3.9500e-02	3.1876	-17.230359	0.000109	1.086982	0.368279	0.008738
  81	4.0000e-02	3.2373	-17.102929	0.000317	3.170363	1.074148	0.025486
  82	4.0500e-02	3.2678	-16.906323	0.000489	4.891417	1.657257	0.039321
  83	4.1000e-02	3.3272	-16.789815	0.000290	2.898618	0.982078	0.023301
  84	4.1500e-02	3.3528	-16.709716	0.000199	1.992800	0.675179	0.016020
  85	4.2000e-02	3.4122	-16.520392	0.000471	4.710254	1.595877	0.037865
  86	4.2500e-02	3.4363	-16.443934	0.000190	1.902218	0.644489	0.015292
  87	4.3000e-02	3.4812	-16.341990	0.000254	2.536290	0.859318	0.020389
  88	4.3500e-02	3.5052	-16.101693	0.000598	5.978399	2.025536	0.048059
  89	4.4000e-02	3.5373	-15.937855	0.000408	4.076181	1.381048	0.032768
  90	4.4500e-02	3.6047	-15.799502	0.000344	3.442108	1.166218	0.027671
  91	4.5000e-02	3.6240	-15.828629	-0.000072	-0.724654	-0.245520	-0.005825
  92	4.5500e-02	3.6769	-15.566487	0.000652	6.521890	2.209676	0.052428
  93	4.6000e-02	3.7154	-15.490029	0.000190	1.902218	0.644489	0.015292
  94	4.6500e-02	3.7427	-15.307986	0.000453	4.529090	1.534497	0.036409
  95	4.7000e-02	3.7844	-15.133225	0.000435	4.347926	1.473117	0.034952
  96	4.7500e-02	3.8389	-15.049485	0.000208	2.083381	0.705869	0.016748
  97	4.8000e-02	3.8838	-14.907492	0.000353	3.532690	1.196908	0.028399
  98	4.8500e-02	3.9079	-14.780062	0.000317	3.170363	1.074148	0.025486
  99	4.9000e-02	3.9657	-14.678118	0.000254	2.536290	0.859318	0.020389
 100	4.9500e-02	3.9865	-14.532483	0.000362	3.623272	1.227598	0.029127
 101	5.0000e-02	4.0234	-14.412335	0.000299	2.989199	1.012768	0.024030
 102	5.0500e-02	4.0844	-14.244856	0.000417	4.166763	1.411737	0.033496
 103	5.1000e-02	4.0988	-14.091940	0.000380	3.804436	1.288978	0.030583
 104	5.1500e-02	4.1582	-13.931742	0.000399	3.985599	1.350358	0.032040
 105	5.2000e-02	4.1822	-13.818875	0.000281	2.808036	0.951388	0.022573
 106	5.2500e-02	4.2255	-13.651396	0.000417	4.166763	1.411737	0.033496
 107	5.3000e-02	4.2641	-13.454790	0.000489	4.891417	1.657257	0.039321
 108	5.3500e-02	4.3346	-13.396536	0.000145	1.449309	0.491039	0.011651
 109	5.4000e-02	4.3731	-13.247261	0.000371	3.713854	1.258288	0.029855
 110	5.4500e-02	4.3956	-13.145317	0.000254	2.536290	0.859318	0.020389
 111	5.5000e-02	4.4293	-12.959633	0.000462	4.619672	1.565187	0.037137
 112	5.5500e-02	4.4902	-12.773949	0.000462	4.619672	1.565187	0.037137
 113	5.6000e-02	4.5336	-12.646519	0.000317	3.170363	1.074148	0.025486
 114	5.6500e-02	4.5656	-12.580984	0.000163	1.630472	0.552419	0.013107
 115	5.7000e-02	4.6009	-12.468117	0.000281	2.808036	0.951388	0.022573
 116	5.7500e-02	4.6410	-12.395300	0.000181	1.811636	0.613799	0.014563
 117	5.8000e-02	4.6779	-12.140440	0.000634	6.340726	2.148296	0.050972
 118	5.8500e-02	4.7132	-11.998447	0.000353	3.532690	1.196908	0.028399
 119	5.9000e-02	4.7582	-11.951115	0.000118	1.177563	0.398969	0.009466
 120	5.9500e-02	4.8095	-11.736305	0.000534	5.344326	1.810707	0.042962
 121	6.0000e-02	4.8271	-11.779995	-0.000109	-1.086982	-0.368279	-0.008738
 122	6.0500e-02	4.8737	-11.510572	0.000670	6.703053	2.271056	0.053885
 123	6.1000e-02	4.9378	-11.332170	0.000444	4.438508	1.503807	0.035680
 124	6.1500e-02	4.9603	-11.324888	0.000018	0.181164	0.061380	0.001456
 125	6.2000e-02	5.0004	-11.019056	0.000761	7.608871	2.577955	0.061166
 126	6.2500e-02	5.0517	-10.971725	0.000118	1.177563	0.398969	0.009466
 127	6.3000e-02	5.0902	-10.789682	0.000453	4.529090	1.534497	0.036409
 128	6.3500e-02	5.1335	-10.680456	0.000272	2.717454	0.920698	0.021845
 129	6.4000e-02	5.1688	-10.509336	0.000426	4.257345	1.442427	0.034224
 130	6.4500e-02	5.1929	-10.436519	0.000181	1.811636	0.613799	0.014563
 131	6.5000e-02	5.2298	-10.301807	0.000335	3.351527	1.135528	0.026942
 132	6.5500e-02	5.2876	-10.167095	0.000335	3.351527	1.135528	0.026942
 133	6.6000e-02	5.3212	-10.017820	0.000371	3.713854	1.258288	0.029855
 134	6.6500e-02	5.3501	-9.926799	0.000226	2.264545	0.767249	0.018204
 135	6.7000e-02	5.3886	-9.748396	0.000444	4.438508	1.503807	0.035680
 136	6.7500e-02	5.4416	-9.569994	0.000444	4.438508	1.503807	0.035680
 137	6.8000e-02	5.5041	-9.457128	0.000281	2.808036	0.951388	0.022573
 138	6.8500e-02	5.5057	-9.387952	0.000172	1.721054	0.583109	0.013835
 139	6.9000e-02	5.5779	-9.238676	0.000371	3.713854	1.258288	0.029855
 140	6.9500e-02	5.6068	-9.009302	0.000571	5.706654	1.933467	0.045875
 141	7.0000e-02	5.6341	-8.943767	0.000163	1.630472	0.552419	0.013107
 142	7.0500e-02	5.6710	-8.809055	0.000335	3.351527	1.135528	0.026942
 143	7.1000e-02	5.7079	-8.627012	0.000453	4.529090	1.534497	0.036409
 144	7.1500e-02	5.7801	-8.561477	0.000163	1.630472	0.552419	0.013107
 145	7.2000e-02	5.8057	-8.423124	0.000344	3.442108	1.166218	0.027671
 146	7.2500e-02	5.8089	-8.339385	0.000208	2.083381	0.705869	0.016748
 147	7.3000e-02	5.8795	-8.153701	0.000462	4.619672	1.565187	0.037137
 148	7.3500e-02	5.9180	-7.993503	0.000399	3.985599	1.350358	0.032040
 149	7.4000e-02	5.9533	-7.913404	0.000199	1.992800	0.675179	0.016020
 150	7.4500e-02	6.0159	-7.833305	0.000199	1.992800	0.675179	0.016020
 151	7.5000e-02	6.0431	-7.603931	0.000571	5.706654	1.933467	0.045875
 152	7.5500e-02	6.0752	-7.501987	0.000254	2.536290	0.859318	0.020389
 153	7.6000e-02	6.1169	-7.381839	0.000299	2.989199	1.012768	0.024030
 154	7.6500e-02	6.1699	-7.352712	0.000072	0.724654	0.245520	0.005825
 155	7.7000e-02	6.2036	-7.068725	0.000707	7.065381	2.393816	0.056797
 156	7.7500e-02	6.2389	-6.955859	0.000281	2.808036	0.951388	0.022573
 157	7.8000e-02	6.2758	-6.821147	0.000335	3.351527	1.135528	0.026942
 158	7.8500e-02	6.3239	-6.682794	0.000344	3.442108	1.166218	0.027671
 159	7.9000e-02	6.3512	-6.602695	0.000199	1.992800	0.675179	0.016020
 160	7.9500e-02	6.3961	-6.442498	0.000399	3.985599	1.350358	0.032040
 161	8.0000e-02	6.4217	-6.373321	0.000172	1.721054	0.583109	0.013835
 162	8.0500e-02	6.4875	-6.089334	0.000707	7.065381	2.393816	0.056797
 163	8.1000e-02	6.4795	-6.020158	-0.000172	-1.721054	-0.583109	0.013835
 164	8.1500e-02	6.5501	-5.856320	0.000408	4.076181	1.381048	0.032768
 165	8.2000e-02	6.5758	-5.830834	0.000063	0.634073	0.214830	0.005097
 166	8.2500e-02	6.6287	-5.623305	0.000516	5.163163	1.749327	0.041506
 167	8.3000e-02	6.6832	-5.670636	-0.000118	-1.177563	-0.398969	-0.009466
 168	8.3500e-02	6.7041	-5.452184	0.000543	5.434908	1.841397	0.043690
 169	8.4000e-02	6.7618	-5.241015	0.000525	5.253745	1.780017	0.042234
 170	8.4500e-02	6.7955	-5.179120	0.000154	1.539891	0.521729	0.012379
 171	8.5000e-02	6.8645	-5.055331	0.000308	3.079781	1.043458	0.024758
 172	8.5500e-02	6.8806	-4.847802	0.000516	5.163163	1.749327	0.041506
 173	8.6000e-02	6.9223	-4.709449	0.000344	3.442108	1.166218	0.027671
 174	8.6500e-02	6.9672	-4.636632	0.000181	1.811636	0.613799	0.014563
 175	8.7000e-02	7.0057	-4.571097	0.000163	1.630472	0.552419	0.013107
 176	8.7500e-02	7.0666	-4.392695	0.000444	4.438508	1.503807	0.035680
 177	8.8000e-02	7.0795	-4.298033	0.000236	2.355127	0.797939	0.018932
 178	8.8500e-02	7.1132	-4.181525	0.000290	2.898618	0.982078	0.023301
 179	8.9000e-02	7.1709	-4.072299	0.000272	2.717454	0.920698	0.021845
 180	8.9500e-02	7.1773	-3.919383	0.000380	3.804436	1.288978	0.030583
 181	9.0000e-02	7.2303	-3.730059	0.000471	4.710254	1.595877	0.037865
 182	9.0500e-02	7.2800	-3.642678	0.000217	2.173963	0.736559	0.017476
 183	9.1000e-02	7.3233	-3.511607	0.000326	3.260945	1.104838	0.026214
 184	9.1500e-02	7.3490	-3.395100	0.000290	2.898618	0.982078	0.023301
 185	9.2000e-02	7.3779	-3.256747	0.000344	3.442108	1.166218	0.027671
 186	9.2500e-02	7.4228	-3.176648	0.000199	1.992800	0.675179	0.016020
 187	9.3000e-02	7.4998	-3.031014	0.000362	3.623272	1.227598	0.029127
 188	9.3500e-02	7.5399	-2.907225	0.000308	3.079781	1.043458	0.024758
 189	9.4000e-02	7.5704	-2.757950	0.000371	3.713854	1.258288	0.029855
 190	9.4500e-02	7.6025	-2.619597	0.000344	3.442108	1.166218	0.027671
 191	9.5000e-02	7.6442	-2.484885	0.000335	3.351527	1.135528	0.026942
 192	9.5500e-02	7.6843	-2.390223	0.000236	2.355127	0.797939	0.018932
 193	9.6000e-02	7.7308	-2.222744	0.000417	4.166763	1.411737	0.033496
 194	9.6500e-02	7.7484	-2.189976	0.000082	0.815236	0.276210	0.006554
 195	9.7000e-02	7.7886	-2.033419	0.000390	3.895017	1.319668	0.031311
 196	9.7500e-02	7.8319	-1.913271	0.000299	2.989199	1.012768	0.024030
 197	9.8000e-02	7.8575	-1.778559	0.000335	3.351527	1.135528	0.026942
 198	9.8500e-02	7.9185	-1.734869	0.000109	1.086982	0.368279	0.008738
 199	9.9000e-02	7.9730	-1.436318	0.000743	7.427708	2.516576	0.059710
 200	9.9500e-02	7.9939	-1.480009	-0.000109	-1.086982	-0.368279	-0.008738
 201	1.0000e-01	8.0340	-1.257916	0.000553	5.525490	1.872087	0.044418
 202	1.0050e-01	8.0773	-1.192381	0.000163	1.630472	0.552419	0.013107
 203	1.0100e-01	8.0805	-1.013979	0.000444	4.438508	1.503807	0.035680
 204	1.0150e-01	8.1591	-0.922957	0.000226	2.264545	0.767249	0.018204
 205	1.0200e-01	8.1800	-0.733633	0.000471	4.710254	1.595877	0.037865
 206	1.0250e-01	8.2442	-0.635330	0.000245	2.445709	0.828629	0.019661
 207	1.0300e-01	8.2778	-0.668097	-0.000082	-0.815236	-0.276210	-0.006554
 208	1.0350e-01	8.3051	-0.449646	0.000543	5.434908	1.841397	0.043690
 209	1.0400e-01	8.3516	-0.249399	0.000498	4.981999	1.687947	0.040049
 210	1.0450e-01	8.4046	-0.191145	0.000145	1.449309	0.491039	0.011651
 211	1.0500e-01	8.4415	-0.070997	0.000299	2.989199	1.012768	0.024030
 212	1.0550e-01	8.4736	0.078278	0.000371	3.713854	1.258288	0.029855
 213	1.0600e-01	8.5233	0.242117	0.000408	4.076181	1.381048	0.032768
 214	1.0650e-01	8.5490	0.311293	0.000172	1.721054	0.583109	0.013835
 215	1.0700e-01	8.5842	0.435082	0.000308	3.079781	1.043458	0.024758
 216	1.0750e-01	8.6372	0.533386	0.000245	2.445709	0.828629	0.019661
 217	1.0800e-01	8.6757	0.689943	0.000390	3.895017	1.319668	0.031311
 218	1.0850e-01	8.7383	0.791887	0.000254	2.536290	0.859318	0.020389
 219	1.0900e-01	8.7543	0.871985	0.000199	1.992800	0.675179	0.016020
 220	1.0950e-01	8.7976	1.043106	0.000426	4.257345	1.442427	0.034224
 221	1.1000e-01	8.8249	1.145050	0.000254	2.536290	0.859318	0.020389
 222	1.1050e-01	8.8698	1.265198	0.000299	2.989199	1.012768	0.024030
 223	1.1100e-01	8.9292	1.334374	0.000172	1.721054	0.583109	0.013835
 224	1.1150e-01	8.9516	1.454523	0.000299	2.989199	1.012768	0.024030
 225	1.1200e-01	8.9837	1.571030	0.000290	2.898618	0.982078	0.023301
 226	1.1250e-01	9.0559	1.778559	0.000516	5.163163	1.749327	0.041506
 227	1.1300e-01	9.0719	1.713024	-0.000163	-1.630472	-0.552419	-0.013107
 228	1.1350e-01	9.1104	1.946038	0.000580	5.797235	1.964156	0.046603
 229	1.1400e-01	9.1586	2.113518	0.000417	4.166763	1.411737	0.033496
 230	1.1450e-01	9.2067	2.200898	0.000217	2.173963	0.736559	0.017476
 231	1.1500e-01	9.2275	2.357455	0.000390	3.895017	1.319668	0.031311
 232	1.1550e-01	9.2901	2.455759	0.000245	2.445709	0.828629	0.019661
 233	1.1600e-01	9.3190	2.656006	0.000498	4.981999	1.687947	0.040049
 234	1.1650e-01	9.3735	2.652365	-0.000009	-0.090582	-0.030690	-0.000728
 235	1.1700e-01	9.4024	2.754309	0.000254	2.536290	0.859318	0.020389
 236	1.1750e-01	9.4313	2.787077	0.000082	0.815236	0.276210	0.006554
 237	1.1800e-01	9.4714	3.041937	0.000634	6.340726	2.148296	0.050972
 238	1.1850e-01	9.5019	3.187571	0.000362	3.623272	1.227598	0.029127
 239	1.1900e-01	9.5580	3.253106	0.000163	1.630472	0.552419	0.013107
 240	1.1950e-01	9.6222	3.365973	0.000281	2.808036	0.951388	0.022573
 241	1.2000e-01	9.6238	3.482480	0.000290	2.898618	0.982078	0.023301
 242	1.2050e-01	9.6960	3.657242	0.000435	4.347926	1.473117	0.034952
 243	1.2100e-01	9.6944	3.693650	-0.000091	-0.905818	-0.306899	0.007282
 244	1.2150e-01	9.7313	3.857489	0.000408	4.076181	1.381048	0.032768
 245	1.2200e-01	9.8067	3.915742	0.000145	1.449309	0.491039	0.011651
 246	1.2250e-01	9.8596	4.199729	0.000707	7.065381	2.393816	0.056797
 247	1.2300e-01	9.8885	4.228856	0.000072	0.724654	0.245520	0.005825
 248	1.2350e-01	9.9254	4.276187	0.000118	1.177563	0.398969	0.009466
 249	1.2400e-01	9.9446	4.432744	0.000390	3.895017	1.319668	0.031311
 250	1.2450e-01	10.0040	4.592942	0.000399	3.985599	1.350358	0.032040
 251	1.2500e-01	10.0473	4.632991	0.000100	0.996400	0.337589	0.008010
 252	1.2550e-01	10.0762	4.771344	0.000344	3.442108	1.166218	0.027671
 253	1.2600e-01	10.1195	4.866006	0.000236	2.355127	0.797939	0.018932
 254	1.2650e-01	10.1628	4.891492	0.000063	0.634073	0.214830	0.005097
 255	1.2700e-01	10.2190	5.128148	0.000589	5.887817	1.994846	0.047331
 256	1.2750e-01	10.2462	5.233733	0.000263	2.626872	0.890008	0.021117
 257	1.2800e-01	10.2847	5.284705	0.000127	1.268145	0.429659	0.010194
 258	1.2850e-01	10.3248	5.455825	0.000426	4.257345	1.442427	0.034224
 259	1.2900e-01	10.3601	5.528642	0.000181	1.811636	0.613799	0.014563
 260	1.2950e-01	10.4034	5.594178	0.000163	1.630472	0.552419	0.013107
 261	1.3000e-01	10.4452	5.707044	0.000281	2.808036	0.951388	0.022573
 262	1.3050e-01	10.4805	5.878165	0.000426	4.257345	1.442427	0.034224
 263	1.3100e-01	10.5414	5.929137	0.000127	1.268145	0.429659	0.010194
 264	1.3150e-01	10.5559	6.052926	0.000308	3.079781	1.043458	0.024758
 265	1.3200e-01	10.5831	6.202201	0.000371	3.713854	1.258288	0.029855
 266	1.3250e-01	10.6313	6.355117	0.000380	3.804436	1.288978	0.030583
 267	1.3300e-01	10.6986	6.540801	0.000462	4.619672	1.565187	0.037137
 268	1.3350e-01	10.7179	6.522597	-0.000045	-0.452909	-0.153450	-0.003641
 269	1.3400e-01	10.7484	6.591773	0.000172	1.721054	0.583109	0.013835
 270	1.3450e-01	10.7804	6.784738	0.000480	4.800835	1.626567	0.038593
 271	1.3500e-01	10.8382	6.875760	0.000226	2.264545	0.767249	0.018204
 272	1.3550e-01	10.8863	6.970422	0.000236	2.355127	0.797939	0.018932
 273	1.3600e-01	10.9104	7.050521	0.000199	1.992800	0.675179	0.016020
 274	1.3650e-01	10.9730	7.199796	0.000371	3.713854	1.258288	0.029855
 275	1.3700e-01	10.9970	7.298099	0.000245	2.445709	0.828629	0.019661
 276	1.3750e-01	11.0484	7.392762	0.000236	2.355127	0.797939	0.018932
 277	1.3800e-01	11.0660	7.556600	0.000408	4.076181	1.381048	0.032768
 278	1.3850e-01	11.1254	7.560241	0.000009	0.090582	0.030690	0.000728
 279	1.3900e-01	11.1606	7.818742	0.000643	6.431308	2.178986	0.051700
 280	1.3950e-01	11.1831	7.822383	0.000009	0.090582	0.030690	0.000728
 281	1.4000e-01	11.2393	7.924327	0.000254	2.536290	0.859318	0.020389
 282	1.4050e-01	11.2778	8.051757	0.000317	3.170363	1.074148	0.025486
 283	1.4100e-01	11.3034	8.157342	0.000263	2.626872	0.890008	0.021117
 284	1.4150e-01	11.3483	8.313899	0.000390	3.895017	1.319668	0.031311
 285	1.4200e-01	11.3965	8.492301	0.000444	4.438508	1.503807	0.035680
 286	1.4250e-01	11.4366	8.488660	-0.000009	-0.090582	-0.030690	-0.000728
 287	1.4300e-01	11.4991	8.594245	0.000263	2.626872	0.890008	0.021117
 288	1.4350e-01	11.5168	8.699829	0.000263	2.626872	0.890008	0.021117
 289	1.4400e-01	11.5457	8.881872	0.000453	4.529090	1.534497	0.036409
 290	1.4450e-01	11.5858	8.943767	0.000154	1.539891	0.521729	0.012379
 291	1.4500e-01	11.6387	9.067556	0.000308	3.079781	1.043458	0.024758
 292	1.4550e-01	11.6772	9.169500	0.000254	2.536290	0.859318	0.020389
 293	1.4600e-01	11.7205	9.275085	0.000263	2.626872	0.890008	0.021117
 294	1.4650e-01	11.7526	9.362466	0.000217	2.173963	0.736559	0.017476
 295	1.4700e-01	11.8039	9.555431	0.000480	4.800835	1.626567	0.038593
 296	1.4750e-01	11.8585	9.613685	0.000145	1.449309	0.491039	0.011651
 297	1.4800e-01	11.8890	9.722910	0.000272	2.717454	0.920698	0.021845
 298	1.4850e-01	11.9339	9.813932	0.000226	2.264545	0.767249	0.018204
 299	1.4900e-01	11.9563	9.792087	-0.000054	-0.543491	-0.184140	-0.004369
 300	1.4950e-01	12.0061	10.014179	0.000553	5.525490	1.872087	0.044418
 301	1.5000e-01	12.0478	10.130687	0.000290	2.898618	0.982078	0.023301
 302	1.5050e-01	12.0799	10.269039	0.000344	3.442108	1.166218	0.027671
 303	1.5100e-01	12.1392	10.309089	0.000100	0.996400	0.337589	0.008010
 304	1.5150e-01	12.1713	10.367342	0.000145	1.449309	0.491039	0.011651
 305	1.5200e-01	12.1858	10.545744	0.000444	4.438508	1.503807	0.035680
 306	1.5250e-01	12.2243	10.629484	0.000208	2.083381	0.705869	0.016748
 307	1.5300e-01	12.2563	10.778759	0.000371	3.713854	1.258288	0.029855
 308	1.5350e-01	12.3109	10.844295	0.000163	1.630472	0.552419	0.013107
 309	1.5400e-01	12.3718	10.942598	0.000245	2.445709	0.828629	0.019661
 310	1.5450e-01	12.3879	10.909830	-0.000082	-0.815236	-0.276210	-0.006554
 311	1.5500e-01	12.4408	11.190176	0.000697	6.974799	2.363126	0.056069
 312	1.5550e-01	12.4809	11.252071	0.000154	1.539891	0.521729	0.012379
 313	1.5600e-01	12.5258	11.346733	0.000236	2.355127	0.797939	0.018932
 314	1.5650e-01	12.5611	11.474163	0.000317	3.170363	1.074148	0.025486
 315	1.5700e-01	12.6141	11.587030	0.000281	2.808036	0.951388	0.022573
 316	1.5750e-01	12.6365	11.710819	0.000308	3.079781	1.043458	0.024758
 317	1.5800e-01	12.6686	11.823685	0.000281	2.808036	0.951388	0.022573
 318	1.5850e-01	12.7280	11.932911	0.000272	2.717454	0.920698	0.021845
 319	1.5900e-01	12.7504	11.965679	0.000082	0.815236	0.276210	0.006554
 320	1.5950e-01	12.8082	12.125877	0.000399	3.985599	1.350358	0.032040
 321	1.6000e-01	12.8130	12.169567	0.000109	1.086982	0.368279	0.008738
 322	1.6050e-01	12.8772	12.355251	0.000462	4.619672	1.565187	0.037137
 323	1.6100e-01	12.9205	12.395300	0.000100	0.996400	0.337589	0.008010
 324	1.6150e-01	12.9381	12.624674	0.000571	5.706654	1.933467	0.045875
 325	1.6200e-01	13.0007	12.551857	-0.000181	-1.811636	-0.613799	-0.014563
 326	1.6250e-01	13.0440	12.697491	0.000362	3.623272	1.227598	0.029127
 327	1.6300e-01	13.1018	12.755745	0.000145	1.449309	0.491039	0.011651
 328	1.6350e-01	13.1130	12.945070	0.000471	4.710254	1.595877	0.037865
 329	1.6400e-01	13.1643	12.996042	0.000127	1.268145	0.429659	0.010194
 330	1.6450e-01	13.2060	13.083422	0.000217	2.173963	0.736559	0.017476
 331	1.6500e-01	13.2301	13.148958	0.000163	1.630472	0.552419	0.013107
 332	1.6550e-01	13.2702	13.349205	0.000498	4.981999	1.687947	0.040049
 333	1.6600e-01	13.3199	13.418381	0.000172	1.721054	0.583109	0.013835
 334	1.6650e-01	13.3584	13.553093	0.000335	3.351527	1.135528	0.026942
 335	1.6700e-01	13.4130	13.662319	0.000272	2.717454	0.920698	0.021845
 336	1.6750e-01	13.4467	13.724213	0.000154	1.539891	0.521729	0.012379
 337	1.6800e-01	13.4788	13.775185	0.000127	1.268145	0.429659	0.010194
 338	1.6850e-01	13.5269	13.935383	0.000399	3.985599	1.350358	0.032040
 339	1.6900e-01	13.5654	14.048249	0.000281	2.808036	0.951388	0.022573
 340	1.6950e-01	13.6167	14.121067	0.000181	1.811636	0.613799	0.014563
 341	1.7000e-01	13.6328	14.168398	0.000118	1.177563	0.398969	0.009466
 342	1.7050e-01	13.6649	14.346800	0.000444	4.438508	1.503807	0.035680
 343	1.7100e-01	13.7242	14.466948	0.000299	2.989199	1.012768	0.024030
 344	1.7150e-01	13.7467	14.452385	-0.000036	-0.362327	-0.122760	-0.002913
 345	1.7200e-01	13.8060	14.627146	0.000435	4.347926	1.473117	0.034952
 346	1.7250e-01	13.8317	14.699963	0.000181	1.811636	0.613799	0.014563
 347	1.7300e-01	13.8702	14.863802	0.000408	4.076181	1.381048	0.032768
 348	1.7350e-01	13.9247	14.903851	0.000100	0.996400	0.337589	0.008010
 349	1.7400e-01	13.9392	15.009436	0.000263	2.626872	0.890008	0.021117
 350	1.7450e-01	13.9985	15.169634	0.000399	3.985599	1.350358	0.032040
 351	1.7500e-01	14.0322	15.206042	0.000091	0.905818	0.306899	0.007282
 352	1.7550e-01	14.0739	15.340754	0.000335	3.351527	1.135528	0.026942
 353	1.7600e-01	14.1253	15.333472	-0.000018	-0.181164	-0.061380	-0.001456
 354	1.7650e-01	14.1686	15.435416	0.000254	2.536290	0.859318	0.020389
 355	1.7700e-01	14.2055	15.562846	0.000317	3.170363	1.074148	0.025486
 356	1.7750e-01	14.2360	15.672072	0.000272	2.717454	0.920698	0.021845
 357	1.7800e-01	14.2889	15.824988	0.000380	3.804436	1.288978	0.030583
 358	1.7850e-01	14.3402	15.926932	0.000254	2.536290	0.859318	0.020389
 359	1.7900e-01	14.3467	16.050721	0.000308	3.079781	1.043458	0.024758
 360	1.7950e-01	14.3980	16.149024	0.000245	2.445709	0.828629	0.019661
 361	1.8000e-01	14.4253	16.218201	0.000172	1.721054	0.583109	0.013835
 362	1.8050e-01	14.4782	16.280095	0.000154	1.539891	0.521729	0.012379
 363	1.8100e-01	14.5263	16.403884	0.000308	3.079781	1.043458	0.024758
 364	1.8150e-01	14.5680	16.436652	0.000082	0.815236	0.276210	0.006554
 365	1.8200e-01	14.5841	16.575005	0.000344	3.442108	1.166218	0.027671
 366	1.8250e-01	14.6194	16.615054	0.000100	0.996400	0.337589	0.008010
 367	1.8300e-01	14.6627	16.757048	0.000353	3.532690	1.196908	0.028399
 368	1.8350e-01	14.7028	16.804379	0.000118	1.177563	0.398969	0.009466
 369	1.8400e-01	14.7557	16.844428	0.000100	0.996400	0.337589	0.008010
 370	1.8450e-01	14.7910	17.084725	0.000598	5.978399	2.025536	0.048059
 371	1.8500e-01	14.8183	17.051957	-0.000082	-0.815236	-0.276210	-0.006554
 372	1.8550e-01	14.8809	17.204873	0.000380	3.804436	1.288978	0.030583
 373	1.8600e-01	14.8969	17.244922	0.000100	0.996400	0.337589	0.008010
 374	1.8650e-01	14.9482	17.386916	0.000353	3.532690	1.196908	0.028399
 375	1.8700e-01	14.9835	17.456092	0.000172	1.721054	0.583109	0.013835
 376	1.8750e-01	15.0413	17.638135	0.000453	4.529090	1.534497	0.036409
 377	1.8800e-01	15.0750	17.732797	0.000236	2.355127	0.797939	0.018932
 378	1.8850e-01	15.1006	17.754643	0.000054	0.543491	0.184140	0.004369
 379	1.8900e-01	15.1456	17.838382	0.000208	2.083381	0.705869	0.016748
 380	1.8950e-01	15.2017	18.075038	0.000589	5.887817	1.994846	0.047331
 381	1.9000e-01	15.2274	18.053193	-0.000054	-0.543491	-0.184140	-0.004369
 382	1.9050e-01	15.2707	18.187905	0.000335	3.351527	1.135528	0.026942
 383	1.9100e-01	15.3060	18.300771	0.000281	2.808036	0.951388	0.022573
 384	1.9150e-01	15.3846	18.362666	0.000154	1.539891	0.521729	0.012379
 385	1.9200e-01	15.3910	18.446406	0.000208	2.083381	0.705869	0.016748
 386	1.9250e-01	15.4488	18.486455	0.000100	0.996400	0.337589	0.008010
 387	1.9300e-01	15.4632	18.573836	0.000217	2.173963	0.736559	0.017476
 388	1.9350e-01	15.5210	18.661216	0.000217	2.173963	0.736559	0.017476
 389	1.9400e-01	15.5514	18.821414	0.000399	3.985599	1.350358	0.032040
 390	1.9450e-01	15.6108	18.945203	0.000308	3.079781	1.043458	0.024758
 391	1.9500e-01	15.6493	19.043506	0.000245	2.445709	0.828629	0.019661
 392	1.9550e-01	15.6637	19.036224	-0.000018	-0.181164	-0.061380	-0.001456
 393	1.9600e-01	15.7183	19.152732	0.000290	2.898618	0.982078	0.023301
 394	1.9650e-01	15.7584	19.323852	0.000426	4.257345	1.442427	0.034224
 395	1.9700e-01	15.7921	19.454923	0.000326	3.260945	1.104838	0.026214
 396	1.9750e-01	15.8530	19.458564	0.000009	0.090582	0.030690	0.000728
 397	1.9800e-01	15.8691	19.560508	0.000254	2.536290	0.859318	0.020389
 398	1.9850e-01	15.9012	19.633325	0.000181	1.811636	0.613799	0.014563
 399	1.9900e-01	15.9461	19.742551	0.000272	2.717454	0.920698	0.021845
 400	1.9950e-01	16.0327	19.902749	0.000399	3.985599	1.350358	0.032040
 401	2.0000e-01	16.0343	19.888185	-0.000036	-0.362327	-0.122760	-0.002913
 402	2.0050e-01	16.0600	20.015615	0.000317	3.170363	1.074148	0.025486
 403	2.0100e-01	16.0985	20.011974	-0.000009	-0.090582	-0.030690	-0.000728
 404	2.0150e-01	16.1578	20.310525	0.000743	7.427708	2.516576	0.059710
 405	2.0200e-01	16.1867	20.314166	0.000009	0.090582	0.030690	0.000728
 406	2.0250e-01	16.2396	20.390624	0.000190	1.902218	0.644489	0.015292
 407	2.0300e-01	16.2669	20.427032	0.000091	0.905818	0.306899	0.007282
 408	2.0350e-01	16.3070	20.445236	0.000045	0.452909	0.153450	0.003641
 409	2.0400e-01	16.3391	20.590871	0.000362	3.623272	1.227598	0.029127
 410	2.0450e-01	16.3776	20.732864	0.000353	3.532690	1.196908	0.028399
 411	2.0500e-01	16.4322	20.863935	0.000326	3.260945	1.104838	0.026214
 412	2.0550e-01	16.4835	20.922189	0.000145	1.449309	0.491039	0.011651
 413	2.0600e-01	16.5108	20.965879	0.000109	1.086982	0.368279	0.008738
 414	2.0650e-01	16.5364	21.082386	0.000290	2.898618	0.982078	0.023301
 415	2.0700e-01	16.5926	21.111513	0.000072	0.724654	0.245520	0.005825
 416	2.0750e-01	16.6551	21.289915	0.000444	4.438508	1.503807	0.035680
 417	2.0800e-01	16.6471	21.319042	-0.000072	-0.724654	-0.245520	0.005825
 418	2.0850e-01	16.7097	21.537494	0.000543	5.434908	1.841397	0.043690
 419	2.0900e-01	16.7658	21.595747	0.000145	1.449309	0.491039	0.011651
 420	2.0950e-01	16.7787	21.577543	-0.000045	-0.452909	-0.153450	-0.003641
 421	2.1000e-01	16.8444	21.734100	0.000390	3.895017	1.319668	0.031311
 422	2.1050e-01	16.8846	21.777790	0.000109	1.086982	0.368279	0.008738
 423	2.1100e-01	16.9231	21.952551	0.000435	4.347926	1.473117	0.034952
 424	2.1150e-01	16.9519	21.945270	-0.000018	-0.181164	-0.061380	-0.001456
 425	2.1200e-01	16.9968	22.054495	0.000272	2.717454	0.920698	0.021845
 426	2.1250e-01	17.0434	22.127313	0.000181	1.811636	0.613799	0.014563
 427	2.1300e-01	17.0995	22.243820	0.000290	2.898618	0.982078	0.023301
 428	2.1350e-01	17.1204	22.378532	0.000335	3.351527	1.135528	0.026942
 429	2.1400e-01	17.1460	22.414940	0.000091	0.905818	0.306899	0.007282
 430	2.1450e-01	17.1942	22.502321	0.000217	2.173963	0.736559	0.017476
 431	2.1500e-01	17.2263	22.567856	0.000163	1.630472	0.552419	0.013107
 432	2.1550e-01	17.2728	22.618828	0.000127	1.268145	0.429659	0.010194
 433	2.1600e-01	17.3049	22.746258	0.000317	3.170363	1.074148	0.025486
 434	2.1650e-01	17.3530	22.804512	0.000145	1.449309	0.491039	0.011651
 435	2.1700e-01	17.3947	22.888252	0.000208	2.083381	0.705869	0.016748
 436	2.1750e-01	17.4204	22.990196	0.000254	2.536290	0.859318	0.020389
 437	2.1800e-01	17.4492	23.110344	0.000299	2.989199	1.012768	0.024030
 438	2.1850e-01	17.5182	23.179521	0.000172	1.721054	0.583109	0.013835
 439	2.1900e-01	17.5487	23.212288	0.000082	0.815236	0.276210	0.006554
 440	2.1950e-01	17.5904	23.317873	0.000263	2.626872	0.890008	0.021117
 441	2.2000e-01	17.6321	23.492634	0.000435	4.347926	1.473117	0.034952
 442	2.2050e-01	17.7107	23.547247	0.000136	1.358727	0.460349	0.010923
 443	2.2100e-01	17.7171	23.587297	0.000100	0.996400	0.337589	0.008010
 444	2.2150e-01	17.7524	23.740213	0.000380	3.804436	1.288978	0.030583
 445	2.2200e-01	17.7797	23.772980	0.000082	0.815236	0.276210	0.006554
 446	2.2250e-01	17.8230	23.849438	0.000190	1.902218	0.644489	0.015292
 447	2.2300e-01	17.8631	23.987791	0.000344	3.442108	1.166218	0.027671
 448	2.2350e-01	17.9081	24.056967	0.000172	1.721054	0.583109	0.013835
 449	2.2400e-01	17.9594	24.191679	0.000335	3.351527	1.135528	0.026942
 450	2.2450e-01	17.9867	24.191679	0.000000	0.000000	0.000000	0.000000
 451	2.2500e-01	18.0380	24.304546	0.000281	2.808036	0.951388	0.022573
 452	2.2550e-01	18.0781	24.479307	0.000435	4.347926	1.473117	0.034952
 453	2.2600e-01	18.1038	24.475666	-0.000009	-0.090582	-0.030690	-0.000728
 454	2.2650e-01	18.1567	24.526638	0.000127	1.268145	0.429659	0.010194
 455	2.2700e-01	18.1808	24.588532	0.000154	1.539891	0.521729	0.012379
 456	2.2750e-01	18.2562	24.803343	0.000534	5.344326	1.810707	0.042962
 457	2.2800e-01	18.2706	24.781498	-0.000054	-0.543491	-0.184140	-0.004369
 458	2.2850e-01	18.3139	24.923491	0.000353	3.532690	1.196908	0.028399
 459	2.2900e-01	18.3412	24.956259	0.000082	0.815236	0.276210	0.006554
 460	2.2950e-01	18.4118	25.014513	0.000145	1.449309	0.491039	0.011651
 461	2.3000e-01	18.4374	25.185633	0.000426	4.257345	1.442427	0.034224
 462	2.3050e-01	18.4743	25.243887	0.000145	1.449309	0.491039	0.011651
 463	2.3100e-01	18.5481	25.345831	0.000254	2.536290	0.859318	0.020389
 464	2.3150e-01	18.5546	25.309422	-0.000091	-0.905818	-0.306899	-0.007282
 465	2.3200e-01	18.5898	25.473261	0.000408	4.076181	1.381048	0.032768
 466	2.3250e-01	18.6380	25.520592	0.000118	1.177563	0.398969	0.009466
 467	2.3300e-01	18.6652	25.626177	0.000263	2.626872	0.890008	0.021117
 468	2.3350e-01	18.7166	25.680790	0.000136	1.358727	0.460349	0.010923
 469	2.3400e-01	18.7471	25.764529	0.000208	2.083381	0.705869	0.016748
 470	2.3450e-01	18.7775	25.964777	0.000498	4.981999	1.687947	0.040049
 471	2.3500e-01	18.8257	25.979340	0.000036	0.362327	0.122760	0.002913
 472	2.3550e-01	18.8979	26.066721	0.000217	2.173963	0.736559	0.017476
 473	2.3600e-01	18.9187	26.161383	0.000236	2.355127	0.797939	0.018932
 474	2.3650e-01	18.9556	26.215996	0.000136	1.358727	0.460349	0.010923
 475	2.3700e-01	18.9989	26.325222	0.000272	2.717454	0.920698	0.021845
 476	2.3750e-01	19.0503	26.376194	0.000127	1.268145	0.429659	0.010194
 477	2.3800e-01	19.0438	26.387116	-0.000027	-0.271745	-0.092070	0.002185
 478	2.3850e-01	19.1016	26.561877	0.000435	4.347926	1.473117	0.034952
 479	2.3900e-01	19.1545	26.674744	0.000281	2.808036	0.951388	0.022573
 480	2.3950e-01	19.1962	26.663821	-0.000027	-0.271745	-0.092070	-0.002185
 481	2.4000e-01	19.2267	26.671103	0.000018	0.181164	0.061380	0.001456
 482	2.4050e-01	19.2973	26.896836	0.000562	5.616072	1.902777	0.045147
 483	2.4100e-01	19.3150	26.951449	0.000136	1.358727	0.460349	0.010923
 484	2.4150e-01	19.3615	27.027907	0.000190	1.902218	0.644489	0.015292
 485	2.4200e-01	19.4016	27.158978	0.000326	3.260945	1.104838	0.026214
 486	2.4250e-01	19.4176	27.217232	0.000145	1.449309	0.491039	0.011651
 487	2.4300e-01	19.4690	27.228154	0.000027	0.271745	0.092070	0.002185
 488	2.4350e-01	19.5171	27.370148	0.000353	3.532690	1.196908	0.028399
 489	2.4400e-01	19.5556	27.501219	0.000326	3.260945	1.104838	0.026214
 490	2.4450e-01	19.5941	27.523064	0.000054	0.543491	0.184140	0.004369
 491	2.4500e-01	19.6390	27.599522	0.000190	1.902218	0.644489	0.015292
 492	2.4550e-01	19.6711	27.719670	0.000299	2.989199	1.012768	0.024030
 493	2.4600e-01	19.7273	27.734234	0.000036	0.362327	0.122760	0.002913
 494	2.4650e-01	19.7625	27.836178	0.000254	2.536290	0.859318	0.020389
 495	2.4700e-01	19.7946	27.949044	0.000281	2.808036	0.951388	0.022573
 496	2.4750e-01	19.8412	28.050988	0.000254	2.536290	0.859318	0.020389
 497	2.4800e-01	19.8780	28.054629	0.000009	0.090582	0.030690	0.000728
 498	2.4850e-01	19.9021	28.229390	0.000435	4.347926	1.473117	0.034952
 499	2.4900e-01	19.9599	28.258517	0.000072	0.724654	0.245520	0.005825
 500	2.4950e-01	19.9775	28.302207	0.000109	1.086982	0.368279	0.008738
 501	2.5000e-01	20.0288	28.331334	0.000072	0.724654	0.245520	0.005825
 502	2.5050e-01	19.9807	28.243954	0.000217	2.173963	0.736559	-0.017476
 503	2.5100e-01	19.9438	28.294926	-0.000127	-1.268145	-0.429659	0.010194
 504	2.5150e-01	19.9005	28.120164	0.000435	4.347926	1.473117	-0.034952
 505	2.5200e-01	19.8732	28.040066	0.000199	1.992800	0.675179	-0.016020
 506	2.5250e-01	19.8075	27.985453	0.000136	1.358727	0.460349	-0.010923
 507	2.5300e-01	19.7641	27.949044	0.000091	0.905818	0.306899	-0.007282
 508	2.5350e-01	19.7224	27.934481	0.000036	0.362327	0.122760	-0.002913
 509	2.5400e-01	19.6679	27.726952	0.000516	5.163163	1.749327	-0.041506
 510	2.5450e-01	19.6791	27.737874	0.000027	0.271745	0.092070	0.002185
 511	2.5500e-01	19.6422	27.759720	-0.000054	-0.543491	-0.184140	0.004369
 512	2.5550e-01	19.5748	27.595881	0.000408	4.076181	1.381048	-0.032768
 513	2.5600e-01	19.5251	27.577677	0.000045	0.452909	0.153450	-0.003641
 514	2.5650e-01	19.4802	27.519423	0.000145	1.449309	0.491039	-0.011651
 515	2.5700e-01	19.4577	27.417479	0.000254	2.536290	0.859318	-0.020389
 516	2.5750e-01	19.4208	27.304612	0.000281	2.808036	0.951388	-0.022573
 517	2.5800e-01	19.3984	27.286408	0.000045	0.452909	0.153450	-0.003641
 518	2.5850e-01	19.3358	27.202668	0.000208	2.083381	0.705869	-0.016748
 519	2.5900e-01	19.3085	27.202668	-0.000000	-0.000000	-0.000000	0.000000
 520	2.5950e-01	19.2556	27.075238	0.000317	3.170363	1.074148	-0.025486
 521	2.6000e-01	19.2155	26.998780	0.000190	1.902218	0.644489	-0.015292
 522	2.6050e-01	19.1642	26.915041	0.000208	2.083381	0.705869	-0.016748
 523	2.6100e-01	19.1337	26.933245	-0.000045	-0.452909	-0.153450	0.003641
 524	2.6150e-01	19.0936	26.794892	0.000344	3.442108	1.166218	-0.027671
 525	2.6200e-01	19.0551	26.754843	0.000100	0.996400	0.337589	-0.008010
 526	2.6250e-01	19.0278	26.652899	0.000254	2.536290	0.859318	-0.020389
 527	2.6300e-01	18.9973	26.594645	0.000145	1.449309	0.491039	-0.011651
 528	2.6350e-01	18.9460	26.489060	0.000263	2.626872	0.890008	-0.021117
 529	2.6400e-01	18.8722	26.412602	0.000190	1.902218	0.644489	-0.015292
 530	2.6450e-01	18.8578	26.408961	0.000009	0.090582	0.030690	-0.000728
 531	2.6500e-01	18.8128	26.310658	0.000245	2.445709	0.828629	-0.019661
 532	2.6550e-01	18.7808	26.252404	0.000145	1.449309	0.491039	-0.011651
 533	2.6600e-01	18.7471	26.154101	0.000245	2.445709	0.828629	-0.019661
 534	2.6650e-01	18.6941	26.070362	0.000208	2.083381	0.705869	-0.016748
 535	2.6700e-01	18.6524	26.044876	0.000063	0.634073	0.214830	-0.005097
 536	2.6750e-01	18.6011	25.902882	0.000353	3.532690	1.196908	-0.028399
 537	2.6800e-01	18.5818	25.924727	-0.000054	-0.543491	-0.184140	0.004369
 538	2.6850e-01	18.5257	25.844628	0.000199	1.992800	0.675179	-0.016020
 539	2.6900e-01	18.5193	25.720839	0.000308	3.079781	1.043458	-0.024758
 540	2.6950e-01	18.4503	25.651663	0.000172	1.721054	0.583109	-0.013835
 541	2.7000e-01	18.4166	25.589768	0.000154	1.539891	0.521729	-0.012379
 542	2.7050e-01	18.3733	25.404085	0.000462	4.619672	1.565187	-0.037137
 543	2.7100e-01	18.3364	25.440493	-0.000091	-0.905818	-0.306899	0.007282
 544	2.7150e-01	18.2947	25.349472	0.000226	2.264545	0.767249	-0.018204
 545	2.7200e-01	18.2706	25.364035	-0.000036	-0.362327	-0.122760	0.002913
 546	2.7250e-01	18.2321	25.269373	0.000236	2.355127	0.797939	-0.018932
 547	2.7300e-01	18.1856	25.247528	0.000054	0.543491	0.184140	-0.004369
 548	2.7350e-01	18.1407	25.101893	0.000362	3.623272	1.227598	-0.029127
 549	2.7400e-01	18.0941	24.963541	0.000344	3.442108	1.166218	-0.027671
 550	2.7450e-01	18.0637	24.919851	0.000109	1.086982	0.368279	-0.008738
 551	2.7500e-01	18.0187	24.817906	0.000254	2.536290	0.859318	-0.020389
 552	2.7550e-01	17.9867	24.792420	0.000063	0.634073	0.214830	-0.005097
 553	2.7600e-01	17.9433	24.705040	0.000217	2.173963	0.736559	-0.017476
 554	2.7650e-01	17.9048	24.595814	0.000272	2.717454	0.920698	-0.021845
 555	2.7700e-01	17.8519	24.570328	0.000063	0.634073	0.214830	-0.005097
 556	2.7750e-01	17.8359	24.450180	0.000299	2.989199	1.012768	-0.024030
 557	2.7800e-01	17.7540	24.381004	0.000172	1.721054	0.583109	-0.013835
 558	2.7850e-01	17.7412	24.297264	0.000208	2.083381	0.705869	-0.016748
 559	2.7900e-01	17.6899	24.260855	0.000091	0.905818	0.306899	-0.007282
 560	2.7950e-01	17.6594	24.126144	0.000335	3.351527	1.135528	-0.026942
 561	2.8000e-01	17.6113	24.177116	-0.000127	-1.268145	-0.429659	0.010194
 562	2.8050e-01	17.5824	24.056967	0.000299	2.989199	1.012768	-0.024030
 563	2.8100e-01	17.5455	23.907692	0.000371	3.713854	1.258288	-0.029855
 564	2.8150e-01	17.5166	23.874924	0.000082	0.815236	0.276210	-0.006554
 565	2.8200e-01	17.4557	23.758417	0.000290	2.898618	0.982078	-0.023301
 566	2.8250e-01	17.4043	23.681959	0.000190	1.902218	0.644489	-0.015292
 567	2.8300e-01	17.3594	23.641909	0.000100	0.996400	0.337589	-0.008010
 568	2.8350e-01	17.3434	23.558170	0.000208	2.083381	0.705869	-0.016748
 569	2.8400e-01	17.3017	23.427099	0.000326	3.260945	1.104838	-0.026214
 570	2.8450e-01	17.2712	23.459867	-0.000082	-0.815236	-0.276210	0.006554
 571	2.8500e-01	17.2150	23.394331	0.000163	1.630472	0.552419	-0.013107
 572	2.8550e-01	17.2054	23.190443	0.000507	5.072581	1.718637	-0.040778
 573	2.8600e-01	17.1412	23.132189	0.000145	1.449309	0.491039	-0.011651
 574	2.8650e-01	17.1027	23.081217	0.000127	1.268145	0.429659	-0.010194
 575	2.8700e-01	17.0546	22.993837	0.000217	2.173963	0.736559	-0.017476
 576	2.8750e-01	17.0129	22.924660	0.000172	1.721054	0.583109	-0.013835
 577	2.8800e-01	16.9712	22.870048	0.000136	1.358727	0.460349	-0.010923
 578	2.8850e-01	16.9279	22.822716	0.000118	1.177563	0.398969	-0.009466
 579	2.8900e-01	16.9054	22.742618	0.000199	1.992800	0.675179	-0.016020
 580	2.8950e-01	16.8765	22.637033	0.000263	2.626872	0.890008	-0.021117
 581	2.9000e-01	16.8156	22.516884	0.000299	2.989199	1.012768	-0.024030
 582	2.9050e-01	16.7803	22.436786	0.000199	1.992800	0.675179	-0.016020
 583	2.9100e-01	16.7370	22.353046	0.000208	2.083381	0.705869	-0.016748
 584	2.9150e-01	16.7065	22.298433	0.000136	1.358727	0.460349	-0.010923
 585	2.9200e-01	16.6648	22.276588	0.000054	0.543491	0.184140	-0.004369
 586	2.9250e-01	16.6022	22.112749	0.000408	4.076181	1.381048	-0.032768
 587	2.9300e-01	16.5765	22.192848	-0.000199	-1.992800	-0.675179	0.016020
 588	2.9350e-01	16.5525	22.007164	0.000462	4.619672	1.565187	-0.037137
 589	2.9400e-01	16.4707	21.912502	0.000236	2.355127	0.797939	-0.018932
 590	2.9450e-01	16.4771	21.865171	-0.000118	-1.177563	-0.398969	-0.009466
 591	2.9500e-01	16.4193	21.755945	0.000272	2.717454	0.920698	-0.021845
 592	2.9550e-01	16.3696	21.664924	0.000226	2.264545	0.767249	-0.018204
 593	2.9600e-01	16.3311	21.621233	0.000109	1.086982	0.368279	-0.008738
 594	2.9650e-01	16.3134	21.548416	0.000181	1.811636	0.613799	-0.014563
 595	2.9700e-01	16.2717	21.508367	0.000100	0.996400	0.337589	-0.008010
 596	2.9750e-01	16.2284	21.311761	0.000489	4.891417	1.657257	-0.039321
 597	2.9800e-01	16.1835	21.275352	0.000091	0.905818	0.306899	-0.007282
 598	2.9850e-01	16.1209	21.231662	0.000109	1.086982	0.368279	-0.008738
 599	2.9900e-01	16.1257	21.140640	-0.000226	-2.264545	-0.767249	-0.018204
 600	2.9950e-01	16.0423	21.005928	0.000335	3.351527	1.135528	-0.026942
 601	3.0000e-01	16.0263	21.082386	-0.000190	-1.902218	-0.644489	0.015292
 602	3.0050e-01	15.9782	20.976802	0.000263	2.626872	0.890008	-0.021117
 603	3.0100e-01	15.9348	20.871217	0.000263	2.626872	0.890008	-0.021117
 604	3.0150e-01	15.9236	20.740146	0.000326	3.260945	1.104838	-0.026214
 605	3.0200e-01	15.8659	20.652765	0.000217	2.173963	0.736559	-0.017476
 606	3.0250e-01	15.8322	20.514413	0.000344	3.442108	1.166218	-0.027671
 607	3.0300e-01	15.7776	20.474363	0.000100	0.996400	0.337589	-0.008010
 608	3.0350e-01	15.7439	20.412469	0.000154	1.539891	0.521729	-0.012379
 609	3.0400e-01	15.7038	20.346933	0.000163	1.630472	0.552419	-0.013107
 610	3.0450e-01	15.6734	20.237708	0.000272	2.717454	0.920698	-0.021845
 611	3.0500e-01	15.6236	20.164890	0.000181	1.811636	0.613799	-0.014563
 612	3.0550e-01	15.5787	20.008333	0.000390	3.895017	1.319668	-0.031311
 613	3.0600e-01	15.5530	19.939157	0.000172	1.721054	0.583109	-0.013835
 614	3.0650e-01	15.4889	19.873622	0.000163	1.630472	0.552419	-0.013107
 615	3.0700e-01	15.4760	19.837213	0.000091	0.905818	0.306899	-0.007282
 616	3.0750e-01	15.4006	19.764396	0.000181	1.811636	0.613799	-0.014563
 617	3.0800e-01	15.3894	19.673375	0.000226	2.264545	0.767249	-0.018204
 618	3.0850e-01	15.3365	19.589635	0.000208	2.083381	0.705869	-0.016748
 619	3.0900e-01	15.3076	19.505895	0.000208	2.083381	0.705869	-0.016748
 620	3.0950e-01	15.2659	19.447641	0.000145	1.449309	0.491039	-0.011651
 621	3.1000e-01	15.2226	19.320211	0.000317	3.170363	1.074148	-0.025486
 622	3.1050e-01	15.1953	19.269239	0.000127	1.268145	0.429659	-0.010194
 623	3.1100e-01	15.1295	19.170936	0.000245	2.445709	0.828629	-0.019661
 624	3.1150e-01	15.0958	19.160014	0.000027	0.271745	0.092070	-0.002185
 625	3.1200e-01	15.0605	19.007098	0.000380	3.804436	1.288978	-0.030583
 626	3.1250e-01	14.9996	18.941562	0.000163	1.630472	0.552419	-0.013107
 627	3.1300e-01	14.9948	18.894231	0.000118	1.177563	0.398969	-0.009466
 628	3.1350e-01	14.9306	18.803210	0.000226	2.264545	0.767249	-0.018204
 629	3.1400e-01	14.8969	18.726752	0.000190	1.902218	0.644489	-0.015292
 630	3.1450e-01	14.8632	18.581117	0.000362	3.623272	1.227598	-0.029127
 631	3.1500e-01	14.8199	18.548350	0.000082	0.815236	0.276210	-0.006554
 632	3.1550e-01	14.7846	18.380870	0.000417	4.166763	1.411737	-0.033496
 633	3.1600e-01	14.7140	18.282567	0.000245	2.445709	0.828629	-0.019661
 634	3.1650e-01	14.6980	18.286208	-0.000009	-0.090582	-0.030690	0.000728
 635	3.1700e-01	14.6675	18.213391	0.000181	1.811636	0.613799	-0.014563
 636	3.1750e-01	14.5937	18.056834	0.000390	3.895017	1.319668	-0.031311
 637	3.1800e-01	14.5953	18.071397	0.000036	0.362327	0.122760	0.002913
 638	3.1850e-01	14.5536	17.933045	0.000344	3.442108	1.166218	-0.027671
 639	3.1900e-01	14.5023	17.801974	0.000326	3.260945	1.104838	-0.026214
 640	3.1950e-01	14.4606	17.732797	0.000172	1.721054	0.583109	-0.013835
 641	3.2000e-01	14.4188	17.616290	0.000290	2.898618	0.982078	-0.023301
 642	3.2050e-01	14.3723	17.601727	0.000036	0.362327	0.122760	-0.002913
 643	3.2100e-01	14.3322	17.416043	0.000462	4.619672	1.565187	-0.037137
 644	3.2150e-01	14.2969	17.361430	0.000136	1.358727	0.460349	-0.010923
 645	3.2200e-01	14.2713	17.350507	0.000027	0.271745	0.092070	-0.002185
 646	3.2250e-01	14.2215	17.172105	0.000444	4.438508	1.503807	-0.035680
 647	3.2300e-01	14.1702	17.121133	0.000127	1.268145	0.429659	-0.010194
 648	3.2350e-01	14.1541	17.088366	0.000082	0.815236	0.276210	-0.006554
 649	3.2400e-01	14.1060	16.975499	0.000281	2.808036	0.951388	-0.022573
 650	3.2450e-01	14.0643	16.939090	0.000091	0.905818	0.306899	-0.007282
 651	3.2500e-01	14.0499	16.837146	0.000254	2.536290	0.859318	-0.020389
 652	3.2550e-01	13.9921	16.702435	0.000335	3.351527	1.135528	-0.026942
 653	3.2600e-01	13.9328	16.629618	0.000181	1.811636	0.613799	-0.014563
 654	3.2650e-01	13.9071	16.564082	0.000163	1.630472	0.552419	-0.013107
 655	3.2700e-01	13.8558	16.433011	0.000326	3.260945	1.104838	-0.026214
 656	3.2750e-01	13.8381	16.371117	0.000154	1.539891	0.521729	-0.012379
 657	3.2800e-01	13.7900	16.269173	0.000254	2.536290	0.859318	-0.020389
 658	3.2850e-01	13.7386	16.170869	0.000245	2.445709	0.828629	-0.019661
 659	3.2900e-01	13.6857	16.047080	0.000308	3.079781	1.043458	-0.024758
 660	3.2950e-01	13.6600	16.017953	0.000072	0.724654	0.245520	-0.005825
 661	3.3000e-01	13.6296	15.919650	0.000245	2.445709	0.828629	-0.019661
 662	3.3050e-01	13.5750	15.865037	0.000136	1.358727	0.460349	-0.010923
 663	3.3100e-01	13.5221	15.715762	0.000371	3.713854	1.258288	-0.029855
 664	3.3150e-01	13.4964	15.664790	0.000127	1.268145	0.429659	-0.010194
 665	3.3200e-01	13.4579	15.595614	0.000172	1.721054	0.583109	-0.013835
 666	3.3250e-01	13.4130	15.424494	0.000426	4.257345	1.442427	-0.034224
 667	3.3300e-01	13.3617	15.373522	0.000127	1.268145	0.429659	-0.010194
 668	3.3350e-01	13.3424	15.326190	0.000118	1.177563	0.398969	-0.009466
 669	3.3400e-01	13.3167	15.227887	0.000245	2.445709	0.828629	-0.019661
 670	3.3450e-01	13.2750	15.198760	0.000072	0.724654	0.245520	-0.005825
 671	3.3500e-01	13.2269	15.107739	0.000226	2.264545	0.767249	-0.018204
 672	3.3550e-01	13.1884	15.002154	0.000263	2.626872	0.890008	-0.021117
 673	3.3600e-01	13.1499	14.801907	0.000498	4.981999	1.687947	-0.040049
 674	3.3650e-01	13.1114	14.765498	0.000091	0.905818	0.306899	-0.007282
 675	3.3700e-01	13.0601	14.685400	0.000199	1.992800	0.675179	-0.016020
 676	3.3750e-01	13.0264	14.557969	0.000317	3.170363	1.074148	-0.025486
 677	3.3800e-01	12.9766	14.521561	0.000091	0.905818	0.306899	-0.007282
 678	3.3850e-01	12.9558	14.481511	0.000100	0.996400	0.337589	-0.008010
 679	3.3900e-01	12.9109	14.346800	0.000335	3.351527	1.135528	-0.026942
 680	3.3950e-01	12.8531	14.266701	0.000199	1.992800	0.675179	-0.016020
 681	3.4000e-01	12.8178	14.135630	0.000326	3.260945	1.104838	-0.026214
 682	3.4050e-01	12.7889	14.008200	0.000317	3.170363	1.074148	-0.025486
 683	3.4100e-01	12.7520	14.048249	-0.000100	-0.996400	-0.337589	0.008010
 684	3.4150e-01	12.7007	13.862566	0.000462	4.619672	1.565187	-0.037137
 685	3.4200e-01	12.6702	13.767903	0.000236	2.355127	0.797939	-0.018932
 686	3.4250e-01	12.6285	13.764263	0.000009	0.090582	0.030690	-0.000728
 687	3.4300e-01	12.5772	13.596783	0.000417	4.166763	1.411737	-0.033496
 688	3.4350e-01	12.5371	13.451149	0.000362	3.623272	1.227598	-0.029127
 689	3.4400e-01	12.5082	13.440226	0.000027	0.271745	0.092070	-0.002185
 690	3.4450e-01	12.4601	13.352846	0.000217	2.173963	0.736559	-0.017476
 691	3.4500e-01	12.4296	13.203570	0.000371	3.713854	1.258288	-0.029855
 692	3.4550e-01	12.3718	13.116190	0.000217	2.173963	0.736559	-0.017476
 693	3.4600e-01	12.3301	13.039732	0.000190	1.902218	0.644489	-0.015292
 694	3.4650e-01	12.2900	12.952351	0.000217	2.173963	0.736559	-0.017476
 695	3.4700e-01	12.2692	12.850407	0.000254	2.536290	0.859318	-0.020389
 696	3.4750e-01	12.2403	12.752104	0.000245	2.445709	0.828629	-0.019661
 697	3.4800e-01	12.1970	12.693850	0.000145	1.449309	0.491039	-0.011651
 698	3.4850e-01	12.1376	12.588265	0.000263	2.626872	0.890008	-0.021117
 699	3.4900e-01	12.1360	12.522730	0.000163	1.630472	0.552419	-0.013107
 700	3.4950e-01	12.0767	12.373455	0.000371	3.713854	1.258288	-0.029855
 701	3.5000e-01	12.0077	12.307919	0.000163	1.630472	0.552419	-0.013107
 702	3.5050e-01	11.9965	12.147722	0.000399	3.985599	1.350358	-0.032040
 703	3.5100e-01	11.9371	12.071264	0.000190	1.902218	0.644489	-0.015292
 704	3.5150e-01	11.9194	12.016651	0.000136	1.358727	0.460349	-0.010923
 705	3.5200e-01	11.8537	11.911066	0.000263	2.626872	0.890008	-0.021117
 706	3.5250e-01	11.8152	11.834608	0.000190	1.902218	0.644489	-0.015292
 707	3.5300e-01	11.7735	11.703537	0.000326	3.260945	1.104838	-0.026214
 708	3.5350e-01	11.7430	11.565184	0.000344	3.442108	1.166218	-0.027671
 709	3.5400e-01	11.7157	11.550621	0.000036	0.362327	0.122760	-0.002913
 710	3.5450e-01	11.6467	11.466881	0.000208	2.083381	0.705869	-0.016748
 711	3.5500e-01	11.6050	11.397705	0.000172	1.721054	0.583109	-0.013835
 712	3.5550e-01	11.5761	11.259352	0.000344	3.442108	1.166218	-0.027671
 713	3.5600e-01	11.5280	11.233866	0.000063	0.634073	0.214830	-0.005097
 714	3.5650e-01	11.5344	11.040901	-0.000480	-4.800835	-1.626567	-0.038593
 715	3.5700e-01	11.4494	11.059105	-0.000045	-0.452909	-0.153450	0.003641
 716	3.5750e-01	11.4205	10.818809	0.000598	5.978399	2.025536	-0.048059
 717	3.5800e-01	11.3580	10.775118	0.000109	1.086982	0.368279	-0.008738
 718	3.5850e-01	11.3259	10.698660	0.000190	1.902218	0.644489	-0.015292
 719	3.5900e-01	11.3130	10.589435	0.000272	2.717454	0.920698	-0.021845
 720	3.5950e-01	11.2745	10.487491	0.000254	2.536290	0.859318	-0.020389
 721	3.6000e-01	11.2232	10.476568	0.000027	0.271745	0.092070	-0.002185
 722	3.6050e-01	11.1735	10.301807	0.000435	4.347926	1.473117	-0.034952
 723	3.6100e-01	11.1398	10.192581	0.000272	2.717454	0.920698	-0.021845
 724	3.6150e-01	11.0836	10.127046	0.000163	1.630472	0.552419	-0.013107
 725	3.6200e-01	11.0339	10.028743	0.000245	2.445709	0.828629	-0.019661
 726	3.6250e-01	11.0291	9.919517	0.000272	2.717454	0.920698	-0.021845
 727	3.6300e-01	10.9665	9.766601	0.000380	3.804436	1.288978	-0.030583
 728	3.6350e-01	10.9264	9.682861	0.000208	2.083381	0.705869	-0.016748
 729	3.6400e-01	10.8976	9.668298	0.000036	0.362327	0.122760	-0.002913
 730	3.6450e-01	10.8703	9.519022	0.000371	3.713854	1.258288	-0.029855
 731	3.6500e-01	10.8206	9.413438	0.000263	2.626872	0.890008	-0.021117
 732	3.6550e-01	10.7804	9.315134	0.000245	2.445709	0.828629	-0.019661
 733	3.6600e-01	10.7259	9.169500	0.000362	3.623272	1.227598	-0.029127
 734	3.6650e-01	10.6906	9.114887	0.000136	1.358727	0.460349	-0.010923
 735	3.6700e-01	10.6409	8.991098	0.000308	3.079781	1.043458	-0.024758
 736	3.6750e-01	10.6152	8.980176	0.000027	0.271745	0.092070	-0.002185
 737	3.6800e-01	10.5815	8.805414	0.000435	4.347926	1.473117	-0.034952
 738	3.6850e-01	10.5478	8.728956	0.000190	1.902218	0.644489	-0.015292
 739	3.6900e-01	10.4997	8.634294	0.000236	2.355127	0.797939	-0.018932
 740	3.6950e-01	10.4516	8.568759	0.000163	1.630472	0.552419	-0.013107
 741	3.7000e-01	10.4307	8.448610	0.000299	2.989199	1.012768	-0.024030
 742	3.7050e-01	10.3762	8.332103	0.000290	2.898618	0.982078	-0.023301
 743	3.7100e-01	10.3361	8.233800	0.000245	2.445709	0.828629	-0.019661
 744	3.7150e-01	10.3056	8.153701	0.000199	1.992800	0.675179	-0.016020
 745	3.7200e-01	10.2639	8.055398	0.000245	2.445709	0.828629	-0.019661
 746	3.7250e-01	10.2302	7.847869	0.000516	5.163163	1.749327	-0.041506
 747	3.7300e-01	10.1885	7.855150	-0.000018	-0.181164	-0.061380	0.001456
 748	3.7350e-01	10.1339	7.687671	0.000417	4.166763	1.411737	-0.033496
 749	3.7400e-01	10.1083	7.673108	0.000036	0.362327	0.122760	-0.002913
 750	3.7450e-01	10.0762	7.549318	0.000308	3.079781	1.043458	-0.024758
 751	3.7500e-01	10.0232	7.465579	0.000208	2.083381	0.705869	-0.016748
 752	3.7550e-01	9.9815	7.261691	0.000507	5.072581	1.718637	-0.040778
 753	3.7600e-01	9.9366	7.126979	0.000335	3.351527	1.135528	-0.026942
 754	3.7650e-01	9.8965	7.050521	0.000190	1.902218	0.644489	-0.015292
 755	3.7700e-01	9.8532	7.035957	0.000036	0.362327	0.122760	-0.002913
 756	3.7750e-01	9.8243	6.835710	0.000498	4.981999	1.687947	-0.040049
 757	3.7800e-01	9.7810	6.810224	0.000063	0.634073	0.214830	-0.005097
 758	3.7850e-01	9.7393	6.719203	0.000226	2.264545	0.767249	-0.018204
 759	3.7900e-01	9.7056	6.573569	0.000362	3.623272	1.227598	-0.029127
 760	3.7950e-01	9.6831	6.508033	0.000163	1.630472	0.552419	-0.013107
 761	3.8000e-01	9.6045	6.347835	0.000399	3.985599	1.350358	-0.032040
 762	3.8050e-01	9.5869	6.311427	0.000091	0.905818	0.306899	-0.007282
 763	3.8100e-01	9.5420	6.267737	0.000109	1.086982	0.368279	-0.008738
 764	3.8150e-01	9.5163	6.140307	0.000317	3.170363	1.074148	-0.025486
 765	3.8200e-01	9.4650	6.060208	0.000199	1.992800	0.675179	-0.016020
 766	3.8250e-01	9.4281	5.841756	0.000543	5.434908	1.841397	-0.043690
 767	3.8300e-01	9.3880	5.779862	0.000154	1.539891	0.521729	-0.012379
 768	3.8350e-01	9.3382	5.732530	0.000118	1.177563	0.398969	-0.009466
 769	3.8400e-01	9.2949	5.488593	0.000607	6.068981	2.056226	-0.048787
 770	3.8450e-01	9.2677	5.466748	0.000054	0.543491	0.184140	-0.004369
 771	3.8500e-01	9.2275	5.364804	0.000254	2.536290	0.859318	-0.020389
 772	3.8550e-01	9.1810	5.182761	0.000453	4.529090	1.534497	-0.036409
 773	3.8600e-01	9.1441	5.208247	-0.000063	-0.634073	-0.214830	0.005097
 774	3.8650e-01	9.1040	5.066253	0.000353	3.532690	1.196908	-0.028399
 775	3.8700e-01	9.0623	4.895133	0.000426	4.257345	1.442427	-0.034224
 776	3.8750e-01	9.0078	4.793189	0.000254	2.536290	0.859318	-0.020389
 777	3.8800e-01	8.9789	4.793189	-0.000000	-0.000000	-0.000000	0.000000
 778	3.8850e-01	8.9404	4.625710	0.000417	4.166763	1.411737	-0.033496
 779	3.8900e-01	8.9131	4.476435	0.000371	3.713854	1.258288	-0.029855
 780	3.8950e-01	8.8409	4.407258	0.000172	1.721054	0.583109	-0.013835
 781	3.9000e-01	8.8153	4.279828	0.000317	3.170363	1.074148	-0.025486
 782	3.9050e-01	8.8008	4.192448	0.000217	2.173963	0.736559	-0.017476
 783	3.9100e-01	8.7270	4.105067	0.000217	2.173963	0.736559	-0.017476
 784	3.9150e-01	8.6998	4.003123	0.000254	2.536290	0.859318	-0.020389
 785	3.9200e-01	8.6468	3.875693	0.000317	3.170363	1.074148	-0.025486
 786	3.9250e-01	8.6163	3.722777	0.000380	3.804436	1.288978	-0.030583
 787	3.9300e-01	8.5538	3.584424	0.000344	3.442108	1.166218	-0.027671
 788	3.9350e-01	8.5650	3.588065	0.000009	0.090582	0.030690	0.000728
 789	3.9400e-01	8.5345	3.518889	0.000172	1.721054	0.583109	-0.013835
 790	3.9450e-01	8.4639	3.278592	0.000598	5.978399	2.025536	-0.048059
 791	3.9500e-01	8.3982	3.274951	0.000009	0.090582	0.030690	-0.000728
 792	3.9550e-01	8.3388	3.085627	0.000471	4.710254	1.595877	-0.037865
 793	3.9600e-01	8.3212	3.023732	0.000154	1.539891	0.521729	-0.012379
 794	3.9650e-01	8.3067	2.848971	0.000435	4.347926	1.473117	-0.034952
 795	3.9700e-01	8.2682	2.812563	0.000091	0.905818	0.306899	-0.007282
 796	3.9750e-01	8.1816	2.601393	0.000525	5.253745	1.780017	-0.042234
 797	3.9800e-01	8.1704	2.572266	0.000072	0.724654	0.245520	-0.005825
 798	3.9850e-01	8.1768	2.524935	-0.000118	-1.177563	-0.398969	-0.009466
 799	3.9900e-01	8.0998	2.375660	0.000371	3.713854	1.258288	-0.029855
 800	3.9950e-01	8.0950	2.182694	0.000480	4.800835	1.626567	-0.038593
 801	4.0000e-01	8.0003	2.069828	0.000281	2.808036	0.951388	-0.022573
 802	4.0050e-01	7.9762	2.033419	0.000091	0.905818	0.306899	-0.007282
 803	4.0100e-01	7.9442	1.876862	0.000390	3.895017	1.319668	-0.031311
 804	4.0150e-01	7.8960	1.796763	0.000199	1.992800	0.675179	-0.016020
 805	4.0200e-01	7.8591	1.709383	0.000217	2.173963	0.736559	-0.017476
 806	4.0250e-01	7.8126	1.665692	0.000109	1.086982	0.368279	-0.008738
 807	4.0300e-01	7.7837	1.458164	0.000516	5.163163	1.749327	-0.041506
 808	4.0350e-01	7.7468	1.396269	0.000154	1.539891	0.521729	-0.012379
 809	4.0400e-01	7.6987	1.185099	0.000525	5.253745	1.780017	-0.042234
 810	4.0450e-01	7.6811	1.155972	0.000072	0.724654	0.245520	-0.005825
 811	4.0500e-01	7.6137	1.046747	0.000272	2.717454	0.920698	-0.021845
 812	4.0550e-01	7.5864	0.886549	0.000399	3.985599	1.350358	-0.032040
 813	4.0600e-01	7.5383	0.773682	0.000281	2.808036	0.951388	-0.022573
 814	4.0650e-01	7.4902	0.617125	0.000390	3.895017	1.319668	-0.031311
 815	4.0700e-01	7.4549	0.609844	0.000018	0.181164	0.061380	-0.001456
 816	4.0750e-01	7.4148	0.467850	0.000353	3.532690	1.196908	-0.028399
 817	4.0800e-01	7.3682	0.362265	0.000263	2.626872	0.890008	-0.021117
 818	4.0850e-01	7.3522	0.282166	0.000199	1.992800	0.675179	-0.016020
 819	4.0900e-01	7.3089	0.074638	0.000516	5.163163	1.749327	-0.041506
 820	4.0950e-01	7.2559	-0.074638	0.000371	3.713854	1.258288	-0.029855
 821	4.1000e-01	7.2110	-0.114687	0.000100	0.996400	0.337589	-0.008010
 822	4.1050e-01	7.1966	-0.169300	0.000136	1.358727	0.460349	-0.010923
 823	4.1100e-01	7.1436	-0.435082	0.000661	6.612472	2.240366	-0.053157
 824	4.1150e-01	7.1035	-0.402315	-0.000082	-0.815236	-0.276210	0.006554
 825	4.1200e-01	7.0634	-0.562513	0.000399	3.985599	1.350358	-0.032040
 826	4.1250e-01	7.0169	-0.697224	0.000335	3.351527	1.135528	-0.026942
 827	4.1300e-01	6.9961	-0.759119	0.000154	1.539891	0.521729	-0.012379
 828	4.1350e-01	6.9527	-0.890190	0.000326	3.260945	1.104838	-0.026214
 829	4.1400e-01	6.8902	-1.079514	0.000471	4.710254	1.595877	-0.037865
 830	4.1450e-01	6.8693	-1.155972	0.000190	1.902218	0.644489	-0.015292
 831	4.1500e-01	6.8228	-1.283402	0.000317	3.170363	1.074148	-0.025486
 832	4.1550e-01	6.7987	-1.421755	0.000344	3.442108	1.166218	-0.027671
 833	4.1600e-01	6.7667	-1.480009	0.000145	1.449309	0.491039	-0.011651
 834	4.1650e-01	6.7041	-1.622002	0.000353	3.532690	1.196908	-0.028399
 835	4.1700e-01	6.6640	-1.694819	0.000181	1.811636	0.613799	-0.014563
 836	4.1750e-01	6.6255	-1.814968	0.000299	2.989199	1.012768	-0.024030
 837	4.1800e-01	6.5870	-2.018856	0.000507	5.072581	1.718637	-0.040778
 838	4.1850e-01	6.5790	-2.040701	0.000054	0.543491	0.184140	-0.004369
 839	4.1900e-01	6.4939	-2.233666	0.000480	4.800835	1.626567	-0.038593
 840	4.1950e-01	6.4923	-2.310124	0.000190	1.902218	0.644489	-0.015292
 841	4.2000e-01	6.4041	-2.430273	0.000299	2.989199	1.012768	-0.024030
 842	4.2050e-01	6.3656	-2.579548	0.000371	3.713854	1.258288	-0.029855
 843	4.2100e-01	6.3415	-2.688773	0.000272	2.717454	0.920698	-0.021845
 844	4.2150e-01	6.3062	-2.736105	0.000118	1.177563	0.398969	-0.009466
 845	4.2200e-01	6.2549	-2.929070	0.000480	4.800835	1.626567	-0.038593
 846	4.2250e-01	6.2036	-3.136599	0.000516	5.163163	1.749327	-0.041506
 847	4.2300e-01	6.1667	-3.143881	0.000018	0.181164	0.061380	-0.001456
 848	4.2350e-01	6.1362	-3.198493	0.000136	1.358727	0.460349	-0.010923
 849	4.2400e-01	6.1025	-3.376896	0.000444	4.438508	1.503807	-0.035680
 850	4.2450e-01	6.0528	-3.544375	0.000417	4.166763	1.411737	-0.033496
 851	4.2500e-01	6.0111	-3.628115	0.000208	2.083381	0.705869	-0.016748
 852	4.2550e-01	5.9902	-3.649960	0.000054	0.543491	0.184140	-0.004369
 853	4.2600e-01	5.9870	-3.861130	0.000525	5.253745	1.780017	-0.042234
 854	4.2650e-01	5.9148	-3.872052	0.000027	0.271745	0.092070	-0.002185
 855	4.2700e-01	5.8747	-4.054095	0.000453	4.529090	1.534497	-0.036409
 856	4.2750e-01	5.8314	-4.228856	0.000435	4.347926	1.473117	-0.034952
 857	4.2800e-01	5.7704	-4.283469	0.000136	1.358727	0.460349	-0.010923
 858	4.2850e-01	5.7255	-4.447308	0.000408	4.076181	1.381048	-0.032768
 859	4.2900e-01	5.7014	-4.596583	0.000371	3.713854	1.258288	-0.029855
 860	4.2950e-01	5.6774	-4.702168	0.000263	2.626872	0.890008	-0.021117
 861	4.3000e-01	5.6036	-4.771344	0.000172	1.721054	0.583109	-0.013835
 862	4.3050e-01	5.5651	-4.971591	0.000498	4.981999	1.687947	-0.040049
 863	4.3100e-01	5.5442	-4.957028	-0.000036	-0.362327	-0.122760	0.002913
 864	4.3150e-01	5.4945	-5.215529	0.000643	6.431308	2.178986	-0.051700
 865	4.3200e-01	5.4576	-5.219170	0.000009	0.090582	0.030690	-0.000728
 866	4.3250e-01	5.4207	-5.339318	0.000299	2.989199	1.012768	-0.024030
 867	4.3300e-01	5.4015	-5.597819	0.000643	6.431308	2.178986	-0.051700
 868	4.3350e-01	5.3630	-5.608741	0.000027	0.271745	0.092070	-0.002185
 869	4.3400e-01	5.2876	-5.823552	0.000534	5.344326	1.810707	-0.042962
 870	4.3450e-01	5.2635	-5.867242	0.000109	1.086982	0.368279	-0.008738
 871	4.3500e-01	5.2474	-5.940059	0.000181	1.811636	0.613799	-0.014563
 872	4.3550e-01	5.1785	-6.209483	0.000670	6.703053	2.271056	-0.053885
 873	4.3600e-01	5.1287	-6.249532	0.000100	0.996400	0.337589	-0.008010
 874	4.3650e-01	5.1063	-6.366040	0.000290	2.898618	0.982078	-0.023301
 875	4.3700e-01	5.0453	-6.548083	0.000453	4.529090	1.534497	-0.036409
 876	4.3750e-01	5.0100	-6.620900	0.000181	1.811636	0.613799	-0.014563
 877	4.3800e-01	4.9876	-6.810224	0.000471	4.710254	1.595877	-0.037865
 878	4.3850e-01	4.9394	-6.821147	0.000027	0.271745	0.092070	-0.002185
 879	4.3900e-01	4.8945	-7.046880	0.000562	5.616072	1.902777	-0.045147
 880	4.3950e-01	4.8672	-7.137902	0.000226	2.264545	0.767249	-0.018204
 881	4.4000e-01	4.8175	-7.258050	0.000299	2.989199	1.012768	-0.024030
 882	4.4050e-01	4.7951	-7.421888	0.000408	4.076181	1.381048	-0.032768
 883	4.4100e-01	4.7325	-7.472860	0.000127	1.268145	0.429659	-0.010194
 884	4.4150e-01	4.7052	-7.654903	0.000453	4.529090	1.534497	-0.036409
 885	4.4200e-01	4.6715	-7.694953	0.000100	0.996400	0.337589	-0.008010
 886	4.4250e-01	4.6314	-7.869714	0.000435	4.347926	1.473117	-0.034952
 887	4.4300e-01	4.5881	-8.051757	0.000453	4.529090	1.534497	-0.036409
 888	4.4350e-01	4.5464	-8.142778	0.000226	2.264545	0.767249	-0.018204
 889	4.4400e-01	4.5191	-8.295694	0.000380	3.804436	1.288978	-0.030583
 890	4.4450e-01	4.4534	-8.434047	0.000344	3.442108	1.166218	-0.027671
 891	4.4500e-01	4.3828	-8.594245	0.000399	3.985599	1.350358	-0.032040
 892	4.4550e-01	4.3651	-8.594245	-0.000000	-0.000000	-0.000000	0.000000
 893	4.4600e-01	4.3459	-8.809055	0.000534	5.344326	1.810707	-0.042962
 894	4.4650e-01	4.3058	-8.881872	0.000181	1.811636	0.613799	-0.014563
 895	4.4700e-01	4.2544	-9.034788	0.000380	3.804436	1.288978	-0.030583
 896	4.4750e-01	4.2111	-9.144014	0.000272	2.717454	0.920698	-0.021845
 897	4.4800e-01	4.1790	-9.260522	0.000290	2.898618	0.982078	-0.023301
 898	4.4850e-01	4.1582	-9.380670	0.000299	2.989199	1.012768	-0.024030
 899	4.4900e-01	4.1357	-9.489896	0.000272	2.717454	0.920698	-0.021845
 900	4.4950e-01	4.0924	-9.792087	0.000752	7.518290	2.547265	-0.060438
 901	4.5000e-01	4.0282	-9.766601	-0.000063	-0.634073	-0.214830	0.005097
 902	4.5050e-01	3.9625	-9.912235	0.000362	3.623272	1.227598	-0.029127
 903	4.5100e-01	3.9336	-10.061510	0.000371	3.713854	1.258288	-0.029855
 904	4.5150e-01	3.9031	-10.181659	0.000299	2.989199	1.012768	-0.024030
 905	4.5200e-01	3.8614	-10.290884	0.000272	2.717454	0.920698	-0.021845
 906	4.5250e-01	3.8165	-10.472927	0.000453	4.529090	1.534497	-0.036409
 907	4.5300e-01	3.8084	-10.571230	0.000245	2.445709	0.828629	-0.019661
 908	4.5350e-01	3.7395	-10.793323	0.000553	5.525490	1.872087	-0.044418
 909	4.5400e-01	3.7218	-10.837013	0.000109	1.086982	0.368279	-0.008738
 910	4.5450e-01	3.6368	-11.026338	0.000471	4.710254	1.595877	-0.037865
 911	4.5500e-01	3.6095	-11.139204	0.000281	2.808036	0.951388	-0.022573
 912	4.5550e-01	3.5710	-11.313965	0.000435	4.347926	1.473117	-0.034952
 913	4.5600e-01	3.5454	-11.364937	0.000127	1.268145	0.429659	-0.010194
 914	4.5650e-01	3.5020	-11.506931	0.000353	3.532690	1.196908	-0.028399
 915	4.5700e-01	3.4684	-11.568825	0.000154	1.539891	0.521729	-0.012379
 916	4.5750e-01	3.4170	-11.718100	0.000371	3.713854	1.258288	-0.029855
 917	4.5800e-01	3.3817	-11.929270	0.000525	5.253745	1.780017	-0.042234
 918	4.5850e-01	3.3336	-11.954756	0.000063	0.634073	0.214830	-0.005097
 919	4.5900e-01	3.2839	-12.195053	0.000598	5.978399	2.025536	-0.048059
 920	4.5950e-01	3.2582	-12.275152	0.000199	1.992800	0.675179	-0.016020
 921	4.6000e-01	3.2389	-12.464476	0.000471	4.710254	1.595877	-0.037865
 922	4.6050e-01	3.2037	-12.522730	0.000145	1.449309	0.491039	-0.011651
 923	4.6100e-01	3.1459	-12.690210	0.000417	4.166763	1.411737	-0.033496
 924	4.6150e-01	3.1379	-12.773949	0.000208	2.083381	0.705869	-0.016748
 925	4.6200e-01	3.0529	-12.872252	0.000245	2.445709	0.828629	-0.019661
 926	4.6250e-01	3.0240	-13.083422	0.000525	5.253745	1.780017	-0.042234
 927	4.6300e-01	2.9839	-13.287310	0.000507	5.072581	1.718637	-0.040778
 928	4.6350e-01	2.9470	-13.316437	0.000072	0.724654	0.245520	-0.005825
 929	4.6400e-01	2.9069	-13.513043	0.000489	4.891417	1.657257	-0.039321
 930	4.6450e-01	2.8732	-13.585860	0.000181	1.811636	0.613799	-0.014563
 931	4.6500e-01	2.8299	-13.706009	0.000299	2.989199	1.012768	-0.024030
 932	4.6550e-01	2.7849	-13.848002	0.000353	3.532690	1.196908	-0.028399
 933	4.6600e-01	2.7625	-13.989996	0.000353	3.532690	1.196908	-0.028399
 934	4.6650e-01	2.6983	-14.241215	0.000625	6.250144	2.117606	-0.050244
 935	4.6700e-01	2.6566	-14.295828	0.000136	1.358727	0.460349	-0.010923
 936	4.6750e-01	2.6261	-14.343159	0.000118	1.177563	0.398969	-0.009466
 937	4.6800e-01	2.5844	-14.539765	0.000489	4.891417	1.657257	-0.039321
 938	4.6850e-01	2.5315	-14.776421	0.000589	5.887817	1.994846	-0.047331
 939	4.6900e-01	2.5170	-14.820111	0.000109	1.086982	0.368279	-0.008738
 940	4.6950e-01	2.4753	-15.002154	0.000453	4.529090	1.534497	-0.036409
 941	4.7000e-01	2.4128	-15.144148	0.000353	3.532690	1.196908	-0.028399
 942	4.7050e-01	2.3759	-15.242451	0.000245	2.445709	0.828629	-0.019661
 943	4.7100e-01	2.3422	-15.380803	0.000344	3.442108	1.166218	-0.027671
 944	4.7150e-01	2.3149	-15.486388	0.000263	2.626872	0.890008	-0.021117
 945	4.7200e-01	2.2507	-15.675713	0.000471	4.710254	1.595877	-0.037865
 946	4.7250e-01	2.2219	-15.697558	0.000054	0.543491	0.184140	-0.004369
 947	4.7300e-01	2.1834	-15.854115	0.000390	3.895017	1.319668	-0.031311
 948	4.7350e-01	2.1272	-16.061644	0.000516	5.163163	1.749327	-0.041506
 949	4.7400e-01	2.0999	-16.272813	0.000525	5.253745	1.780017	-0.042234
 950	4.7450e-01	2.0582	-16.389321	0.000290	2.898618	0.982078	-0.023301
 951	4.7500e-01	2.0101	-16.403884	0.000036	0.362327	0.122760	-0.002913
 952	4.7550e-01	1.9684	-16.611413	0.000516	5.163163	1.749327	-0.041506
 953	4.7600e-01	1.9395	-16.778893	0.000417	4.166763	1.411737	-0.033496
 954	4.7650e-01	1.8978	-16.909964	0.000326	3.260945	1.104838	-0.026214
 955	4.7700e-01	1.8593	-17.059239	0.000371	3.713854	1.258288	-0.029855
 956	4.7750e-01	1.8401	-17.142978	0.000208	2.083381	0.705869	-0.016748
 957	4.7800e-01	1.7791	-17.201232	0.000145	1.449309	0.491039	-0.011651
 958	4.7850e-01	1.7534	-17.430606	0.000571	5.706654	1.933467	-0.045875
 959	4.7900e-01	1.7101	-17.572600	0.000353	3.532690	1.196908	-0.028399
 960	4.7950e-01	1.6796	-17.758283	0.000462	4.619672	1.565187	-0.037137
 961	4.8000e-01	1.6459	-17.838382	0.000199	1.992800	0.675179	-0.016020
 962	4.8050e-01	1.5850	-18.002221	0.000408	4.076181	1.381048	-0.032768
 963	4.8100e-01	1.5417	-18.016784	0.000036	0.362327	0.122760	-0.002913
 964	4.8150e-01	1.4903	-18.308053	0.000725	7.246544	2.455196	-0.058254
 965	4.8200e-01	1.4599	-18.435483	0.000317	3.170363	1.074148	-0.025486
 966	4.8250e-01	1.4085	-18.464610	0.000072	0.724654	0.245520	-0.005825
 967	4.8300e-01	1.3877	-18.650294	0.000462	4.619672	1.565187	-0.037137
 968	4.8350e-01	1.3363	-18.817773	0.000417	4.166763	1.411737	-0.033496
 969	4.8400e-01	1.3139	-19.003457	0.000462	4.619672	1.565187	-0.037137
 970	4.8450e-01	1.2497	-19.076274	0.000181	1.811636	0.613799	-0.014563
 971	4.8500e-01	1.2288	-19.181859	0.000263	2.626872	0.890008	-0.021117
 972	4.8550e-01	1.2016	-19.403951	0.000553	5.525490	1.872087	-0.044418
 973	4.8600e-01	1.1470	-19.538663	0.000335	3.351527	1.135528	-0.026942
 974	4.8650e-01	1.0909	-19.687938	0.000371	3.713854	1.258288	-0.029855
 975	4.8700e-01	1.0684	-19.800805	0.000281	2.808036	0.951388	-0.022573
 976	4.8750e-01	1.0251	-20.008333	0.000516	5.163163	1.749327	-0.041506
 977	4.8800e-01	0.9657	-20.088432	0.000199	1.992800	0.675179	-0.016020
 978	4.8850e-01	0.9289	-20.241348	0.000380	3.804436	1.288978	-0.030583
 979	4.8900e-01	0.9064	-20.376060	0.000335	3.351527	1.135528	-0.026942
 980	4.8950e-01	0.8535	-20.590871	0.000534	5.344326	1.810707	-0.042962
 981	4.9000e-01	0.8214	-20.670970	0.000199	1.992800	0.675179	-0.016020
 982	4.9050e-01	0.8037	-20.827526	0.000390	3.895017	1.319668	-0.031311
 983	4.9100e-01	0.7508	-20.976802	0.000371	3.713854	1.258288	-0.029855
 984	4.9150e-01	0.7235	-21.173408	0.000489	4.891417	1.657257	-0.039321
 985	4.9200e-01	0.6513	-21.260789	0.000217	2.173963	0.736559	-0.017476
 986	4.9250e-01	0.6273	-21.435550	0.000435	4.347926	1.473117	-0.034952
 987	4.9300e-01	0.5920	-21.610311	0.000435	4.347926	1.473117	-0.034952
 988	4.9350e-01	0.5631	-21.763227	0.000380	3.804436	1.288978	-0.030583
 989	4.9400e-01	0.4925	-21.836044	0.000181	1.811636	0.613799	-0.014563
 990	4.9450e-01	0.4524	-21.992601	0.000390	3.895017	1.319668	-0.031311
 991	4.9500e-01	0.4412	-22.116390	0.000308	3.079781	1.043458	-0.024758
 992	4.9550e-01	0.3754	-22.334842	0.000543	5.434908	1.841397	-0.043690
 993	4.9600e-01	0.3257	-22.476835	0.000353	3.532690	1.196908	-0.028399
 994	4.9650e-01	0.3112	-22.553293	0.000190	1.902218	0.644489	-0.015292
 995	4.9700e-01	0.2695	-22.757181	0.000507	5.072581	1.718637	-0.040778
 996	4.9750e-01	0.2358	-22.888252	0.000326	3.260945	1.104838	-0.026214
 997	4.9800e-01	0.1909	-23.139471	0.000625	6.250144	2.117606	-0.050244
 998	4.9850e-01	0.1652	-23.208647	0.000172	1.721054	0.583109	-0.013835
 999	4.9900e-01	0.1235	-23.368845	0.000399	3.985599	1.350358	-0.032040
1000	4.9950e-01	0.0690	-23.529043	0.000399	3.985599	1.350358	-0.032040
1001	5.0000e-01	0.0818	-23.671036	0.000399	3.985599	1.350358	-0.028399

PMax (uC/cm2):	5.67e+01
Pr (uC/cm2):	4.66e+00
-Pr (uC/cm2):	0.00e+00
PLoss (uC/cm2):	0.00e+00
C (Max-Eff) (nF):	2.83e-01
K (Eff):	9.59e+02
Vert. (+/-Pr) Shift (uC/cm2):	2.33e+00
Offset (uC/cm2):	2.83e+01

A (Loop Area - uC/cm2·Volts):	-2.07e-01



Hysteresis Version: 5.48.1 - Radiant Technologies, Inc., 1999 - 9/12/24

