»»»»»»»»»»»»»»»»»»»»»»»»»»»»»»»»»»»» Hysteresis ««««««««««««««««««««««««««««««««««««
»»»  Executed Version:	5.48.1
»»»  Vision Version:	5.48.4 (R)
»»»  Vision Compiled:	9/18/24
»»»  Driver Version:	5.47.0
»»»  Windows Version:	Windows 8 or 8.1
»»»  Processor Information:	x86 (AMD or Intel) - 32 Processors
»»»  Tester Name:	PMF21124-494 (100V)
»»»  Tester S/N:	PMF21124-494
»»»  Internal Amp Type:	100V RevK 270k
»»»  Internal Amp S/N:	iAB2-596/K     
»»»  Execution Count:	1
»»»»»»»»»»»»»»»»»»»»»»»»»»»»»»»»»»»»»»»»»»««««««««««««««««««««««««««««««««««««««««««

Stored:	10/10/2025 - 18:29:14
Configured:	10/10/25 10:37:25 AM
Executed:	10/10/25 06:28:40 PM

»»»»»»»»»»»»»»»»»»»»»»»»»»»»»»»»»»» Sample Info ««««««««««««««««««««««««««««««««««««
Sample Name:	Int. Ref. Ferroelectric
Lot Name:	N/A
Wafer Name:	N/A
Die Row/Column:	0/0
Capacitor Number:	0
Sample Area (cm2):	1.00e-04
Sample Thickness (microns):	3.00e-01

Amplifier:	Internal

»»»»»»»»»»»»»»»»»»»»»»»»»»»»»»»»»»» Tester Info «««««««««««««««««««««««««««««««««««
Tester Name:	PMF21124-494 (100V)
Tester Serial Number:	PMF21124-494
Return Signal Amp. Level:	0.19 [Index: 3]

»»»»»»»»»»»»»»»»»»»»»»»»»»»»»»»» Hysteresis Info ««««««««««««««««««««««««««««««««««
Task Name:	'
Volts:	20.00
Field:	666.67 (kV/cm)
DCBias:	0.00
DCField:	0.00 (kV/cm)
Hysteresis Period (ms):	1.00e+02
Preset:	DisabledProfile:	Standard Monopolar

»»»»»»»»»»»»»»»»»»»»»»»»»»»»»»»»»»»»»» Data «««««««««««««««««««««««««««««««««««««««
Points:	2001

Valid Data

Point	Time (ms)	Drive Voltage	Measured Polarization (uC/cm2)	Capacitance (uF)	Normalized Capacitance (uF/cm2)	Dielectric Constant	Instantaneous Current (mA)
   1	0.0000e+00	-0.0016	-30.696362	0.000363	3.629212	1.229610	0.000145
   2	5.0000e-02	0.0112	-30.623693	0.000363	3.629212	1.229610	0.000145
   3	1.0000e-01	0.0385	-30.551025	0.000363	3.629212	1.229610	0.000145
   4	1.5000e-01	0.0545	-30.490468	0.000302	3.024343	1.024675	0.000121
   5	2.0000e-01	0.0706	-30.397614	0.000464	4.637326	1.571169	0.000186
   6	2.5000e-01	0.0995	-30.345131	0.000262	2.621098	0.888052	0.000105
   7	3.0000e-01	0.1187	-30.276499	0.000343	3.427589	1.161299	0.000137
   8	3.5000e-01	0.1428	-30.179608	0.000484	4.838949	1.639480	0.000194
   9	4.0000e-01	0.1524	-30.155385	0.000121	1.209737	0.409870	0.000048
  10	4.5000e-01	0.1733	-30.086754	0.000343	3.427589	1.161299	0.000137
  11	5.0000e-01	0.1845	-30.018123	0.000343	3.427589	1.161299	0.000137
  12	5.5000e-01	0.2182	-29.905083	0.000565	5.645441	1.912727	0.000226
  13	6.0000e-01	0.2310	-29.876823	0.000141	1.411360	0.478182	0.000057
  14	6.5000e-01	0.2535	-29.783969	0.000464	4.637326	1.571169	0.000186
  15	7.0000e-01	0.2807	-29.699189	0.000423	4.234081	1.434545	0.000170
  16	7.5000e-01	0.3064	-29.582112	0.000585	5.847064	1.981039	0.000234
  17	8.0000e-01	0.3112	-29.549815	0.000161	1.612983	0.546493	0.000065
  18	8.5000e-01	0.3417	-29.497332	0.000262	2.621098	0.888052	0.000105
  19	9.0000e-01	0.3593	-29.384292	0.000565	5.645441	1.912727	0.000226
  20	9.5000e-01	0.3802	-29.311624	0.000363	3.629212	1.229610	0.000145
  21	1.0000e+00	0.3930	-29.238956	0.000363	3.629212	1.229610	0.000145
  22	1.0500e+00	0.4203	-29.174361	0.000323	3.225966	1.092987	0.000129
  23	1.1000e+00	0.4283	-29.117842	0.000282	2.822720	0.956364	0.000113
  24	1.1500e+00	0.4684	-29.045173	0.000363	3.629212	1.229610	0.000145
  25	1.2000e+00	0.4765	-28.903873	0.000706	7.056801	2.390909	0.000283
  26	1.2500e+00	0.4957	-28.883688	0.000101	1.008114	0.341558	0.000040
  27	1.3000e+00	0.5150	-28.786796	0.000484	4.838949	1.639480	0.000194
  28	1.3500e+00	0.5310	-28.702017	0.000423	4.234081	1.434545	0.000170
  29	1.4000e+00	0.5551	-28.605125	0.000484	4.838949	1.639480	0.000194
  30	1.4500e+00	0.5823	-28.520345	0.000423	4.234081	1.434545	0.000170
  31	1.5000e+00	0.5936	-28.500160	0.000101	1.008114	0.341558	0.000040
  32	1.5500e+00	0.6160	-28.370971	0.000645	6.451932	2.185974	0.000258
  33	1.6000e+00	0.6353	-28.282154	0.000444	4.435703	1.502857	0.000178
  34	1.6500e+00	0.6513	-28.225635	0.000282	2.822720	0.956364	0.000113
  35	1.7000e+00	0.6786	-28.140855	0.000423	4.234081	1.434545	0.000170
  36	1.7500e+00	0.6962	-28.052038	0.000444	4.435703	1.502857	0.000178
  37	1.8000e+00	0.7043	-27.995518	0.000282	2.822720	0.956364	0.000113
  38	1.8500e+00	0.7363	-27.858255	0.000686	6.855178	2.322597	0.000275
  39	1.9000e+00	0.7524	-27.829995	0.000141	1.411360	0.478182	0.000057
  40	1.9500e+00	0.7861	-27.720993	0.000544	5.443818	1.844415	0.000218
  41	2.0000e+00	0.7941	-27.656398	0.000323	3.225966	1.092987	0.000129
  42	2.0500e+00	0.8230	-27.611990	0.000222	2.217852	0.751429	0.000089
  43	2.1000e+00	0.8438	-27.519136	0.000464	4.637326	1.571169	0.000186
  44	2.1500e+00	0.8615	-27.430319	0.000444	4.435703	1.502857	0.000178
  45	2.2000e+00	0.8759	-27.361687	0.000343	3.427589	1.161299	0.000137
  46	2.2500e+00	0.8936	-27.305168	0.000282	2.822720	0.956364	0.000113
  47	2.3000e+00	0.9256	-27.240573	0.000323	3.225966	1.092987	0.000129
  48	2.3500e+00	0.9385	-27.184053	0.000282	2.822720	0.956364	0.000113
  49	2.4000e+00	0.9593	-27.091199	0.000464	4.637326	1.571169	0.000186
  50	2.4500e+00	0.9786	-27.018531	0.000363	3.629212	1.229610	0.000145
  51	2.5000e+00	0.9962	-26.925677	0.000464	4.637326	1.571169	0.000186
  52	2.5500e+00	1.0171	-26.840897	0.000423	4.234081	1.434545	0.000170
  53	2.6000e+00	1.0411	-26.792451	0.000242	2.419475	0.819740	0.000097
  54	2.6500e+00	1.0508	-26.675374	0.000585	5.847064	1.981039	0.000234
  55	2.7000e+00	1.0652	-26.610780	0.000323	3.225966	1.092987	0.000129
  56	2.7500e+00	1.0989	-26.530038	0.000403	4.032458	1.366234	0.000161
  57	2.8000e+00	1.1198	-26.437183	0.000464	4.637326	1.571169	0.000186
  58	2.8500e+00	1.1310	-26.408923	0.000141	1.411360	0.478182	0.000057
  59	2.9000e+00	1.1534	-26.307995	0.000504	5.040572	1.707792	0.000202
  60	2.9500e+00	1.1727	-26.223215	0.000423	4.234081	1.434545	0.000170
  61	3.0000e+00	1.1935	-26.138435	0.000423	4.234081	1.434545	0.000170
  62	3.0500e+00	1.2144	-26.114213	0.000121	1.209737	0.409870	0.000048
  63	3.1000e+00	1.2304	-25.936579	0.000887	8.871407	3.005714	0.000355
  64	3.1500e+00	1.2593	-25.924467	0.000060	0.604869	0.204935	0.000024
  65	3.2000e+00	1.2738	-25.876022	0.000242	2.419475	0.819740	0.000097
  66	3.2500e+00	1.3026	-25.779130	0.000484	4.838949	1.639480	0.000194
  67	3.3000e+00	1.3235	-25.698388	0.000403	4.032458	1.366234	0.000161
  68	3.3500e+00	1.3363	-25.621682	0.000383	3.830835	1.297922	0.000153
  69	3.4000e+00	1.3524	-25.549014	0.000363	3.629212	1.229610	0.000145
  70	3.4500e+00	1.3796	-25.435974	0.000565	5.645441	1.912727	0.000226
  71	3.5000e+00	1.3957	-25.355231	0.000403	4.032458	1.366234	0.000161
  72	3.5500e+00	1.4230	-25.318897	0.000181	1.814606	0.614805	0.000073
  73	3.6000e+00	1.4278	-25.234117	0.000423	4.234081	1.434545	0.000170
  74	3.6500e+00	1.4582	-25.145300	0.000444	4.435703	1.502857	0.000178
  75	3.7000e+00	1.4759	-25.080706	0.000323	3.225966	1.092987	0.000129
  76	3.7500e+00	1.4967	-24.999963	0.000403	4.032458	1.366234	0.000161
  77	3.8000e+00	1.5144	-24.890960	0.000544	5.443818	1.844415	0.000218
  78	3.8500e+00	1.5401	-24.814255	0.000383	3.830835	1.297922	0.000153
  79	3.9000e+00	1.5593	-24.725438	0.000444	4.435703	1.502857	0.000178
  80	3.9500e+00	1.5754	-24.697178	0.000141	1.411360	0.478182	0.000057
  81	4.0000e+00	1.5994	-24.608361	0.000444	4.435703	1.502857	0.000178
  82	4.0500e+00	1.6171	-24.551841	0.000282	2.822720	0.956364	0.000113
  83	4.1000e+00	1.6379	-24.446875	0.000524	5.242195	1.776104	0.000210
  84	4.1500e+00	1.6668	-24.349984	0.000484	4.838949	1.639480	0.000194
  85	4.2000e+00	1.6780	-24.305576	0.000222	2.217852	0.751429	0.000089
  86	4.2500e+00	1.6989	-24.204647	0.000504	5.040572	1.707792	0.000202
  87	4.3000e+00	1.7246	-24.131979	0.000363	3.629212	1.229610	0.000145
  88	4.3500e+00	1.7342	-24.115830	0.000081	0.806492	0.273247	0.000032
  89	4.4000e+00	1.7518	-23.958382	0.000786	7.863293	2.664156	0.000315
  90	4.4500e+00	1.7759	-23.901862	0.000282	2.822720	0.956364	0.000113
  91	4.5000e+00	1.7999	-23.833231	0.000343	3.427589	1.161299	0.000137
  92	4.5500e+00	1.8128	-23.780748	0.000262	2.621098	0.888052	0.000105
  93	4.6000e+00	1.8385	-23.675783	0.000524	5.242195	1.776104	0.000210
  94	4.6500e+00	1.8593	-23.607151	0.000343	3.427589	1.161299	0.000137
  95	4.7000e+00	1.8721	-23.554668	0.000262	2.621098	0.888052	0.000105
  96	4.7500e+00	1.9026	-23.453740	0.000504	5.040572	1.707792	0.000202
  97	4.8000e+00	1.9171	-23.393183	0.000302	3.024343	1.024675	0.000121
  98	4.8500e+00	1.9363	-23.300329	0.000464	4.637326	1.571169	0.000186
  99	4.9000e+00	1.9443	-23.231698	0.000343	3.427589	1.161299	0.000137
 100	4.9500e+00	1.9764	-23.134806	0.000484	4.838949	1.639480	0.000194
 101	5.0000e+00	1.9941	-23.037915	0.000484	4.838949	1.639480	0.000194
 102	5.0500e+00	2.0149	-22.969284	0.000343	3.427589	1.161299	0.000137
 103	5.1000e+00	2.0326	-22.884504	0.000423	4.234081	1.434545	0.000170
 104	5.1500e+00	2.0566	-22.787613	0.000484	4.838949	1.639480	0.000194
 105	5.2000e+00	2.0775	-22.731093	0.000282	2.822720	0.956364	0.000113
 106	5.2500e+00	2.0919	-22.650350	0.000403	4.032458	1.366234	0.000161
 107	5.3000e+00	2.1176	-22.614016	0.000181	1.814606	0.614805	0.000073
 108	5.3500e+00	2.1304	-22.525199	0.000444	4.435703	1.502857	0.000178
 109	5.4000e+00	2.1481	-22.488865	0.000181	1.814606	0.614805	0.000073
 110	5.4500e+00	2.1737	-22.396011	0.000464	4.637326	1.571169	0.000186
 111	5.5000e+00	2.1978	-22.274896	0.000605	6.048687	2.049350	0.000242
 112	5.5500e+00	2.2203	-22.210302	0.000323	3.225966	1.092987	0.000129
 113	5.6000e+00	2.2347	-22.117448	0.000464	4.637326	1.571169	0.000186
 114	5.6500e+00	2.2588	-22.060928	0.000282	2.822720	0.956364	0.000113
 115	5.7000e+00	2.2716	-21.968074	0.000464	4.637326	1.571169	0.000186
 116	5.7500e+00	2.3053	-21.895406	0.000363	3.629212	1.229610	0.000145
 117	5.8000e+00	2.3117	-21.822737	0.000363	3.629212	1.229610	0.000145
 118	5.8500e+00	2.3406	-21.774292	0.000242	2.419475	0.819740	0.000097
 119	5.9000e+00	2.3614	-21.641066	0.000665	6.653555	2.254286	0.000266
 120	5.9500e+00	2.3759	-21.580509	0.000302	3.024343	1.024675	0.000121
 121	6.0000e+00	2.3919	-21.487655	0.000464	4.637326	1.571169	0.000186
 122	6.0500e+00	2.4208	-21.447284	0.000202	2.016229	0.683117	0.000081
 123	6.1000e+00	2.4336	-21.362504	0.000423	4.234081	1.434545	0.000170
 124	6.1500e+00	2.4673	-21.253501	0.000544	5.443818	1.844415	0.000218
 125	6.2000e+00	2.4801	-21.188907	0.000323	3.225966	1.092987	0.000129
 126	6.2500e+00	2.4994	-21.164684	0.000121	1.209737	0.409870	0.000048
 127	6.3000e+00	2.5138	-21.051644	0.000565	5.645441	1.912727	0.000226
 128	6.3500e+00	2.5347	-20.966864	0.000423	4.234081	1.434545	0.000170
 129	6.4000e+00	2.5507	-20.861899	0.000524	5.242195	1.776104	0.000210
 130	6.4500e+00	2.5732	-20.789230	0.000363	3.629212	1.229610	0.000145
 131	6.5000e+00	2.5956	-20.732711	0.000282	2.822720	0.956364	0.000113
 132	6.5500e+00	2.6037	-20.660042	0.000363	3.629212	1.229610	0.000145
 133	6.6000e+00	2.6325	-20.587374	0.000363	3.629212	1.229610	0.000145
 134	6.6500e+00	2.6534	-20.502594	0.000423	4.234081	1.434545	0.000170
 135	6.7000e+00	2.6710	-20.405703	0.000484	4.838949	1.639480	0.000194
 136	6.7500e+00	2.6887	-20.337071	0.000343	3.427589	1.161299	0.000137
 137	6.8000e+00	2.7160	-20.260366	0.000383	3.830835	1.297922	0.000153
 138	6.8500e+00	2.7400	-20.167512	0.000464	4.637326	1.571169	0.000186
 139	6.9000e+00	2.7513	-20.098880	0.000343	3.427589	1.161299	0.000137
 140	6.9500e+00	2.7721	-20.014100	0.000423	4.234081	1.434545	0.000170
 141	7.0000e+00	2.7994	-19.957581	0.000282	2.822720	0.956364	0.000113
 142	7.0500e+00	2.8234	-19.905098	0.000262	2.621098	0.888052	0.000105
 143	7.1000e+00	2.8459	-19.840504	0.000323	3.225966	1.092987	0.000129
 144	7.1500e+00	2.8539	-19.739575	0.000504	5.040572	1.707792	0.000202
 145	7.2000e+00	2.8828	-19.650758	0.000444	4.435703	1.502857	0.000178
 146	7.2500e+00	2.9069	-19.630573	0.000101	1.008114	0.341558	0.000040
 147	7.3000e+00	2.9149	-19.529644	0.000504	5.040572	1.707792	0.000202
 148	7.3500e+00	2.9261	-19.416604	0.000565	5.645441	1.912727	0.000226
 149	7.4000e+00	2.9630	-19.364122	0.000262	2.621098	0.888052	0.000105
 150	7.4500e+00	2.9807	-19.275305	0.000444	4.435703	1.502857	0.000178
 151	7.5000e+00	3.0015	-19.206673	0.000343	3.427589	1.161299	0.000137
 152	7.5500e+00	3.0144	-19.089596	0.000585	5.847064	1.981039	0.000234
 153	7.6000e+00	3.0320	-19.065374	0.000121	1.209737	0.409870	0.000048
 154	7.6500e+00	3.0593	-18.952334	0.000565	5.645441	1.912727	0.000226
 155	7.7000e+00	3.0801	-18.883702	0.000343	3.427589	1.161299	0.000137
 156	7.7500e+00	3.0930	-18.827183	0.000282	2.822720	0.956364	0.000113
 157	7.8000e+00	3.1186	-18.689920	0.000686	6.855178	2.322597	0.000275
 158	7.8500e+00	3.1443	-18.645511	0.000222	2.217852	0.751429	0.000089
 159	7.9000e+00	3.1587	-18.572843	0.000363	3.629212	1.229610	0.000145
 160	7.9500e+00	3.1892	-18.459803	0.000565	5.645441	1.912727	0.000226
 161	8.0000e+00	3.1988	-18.419432	0.000202	2.016229	0.683117	0.000081
 162	8.0500e+00	3.2133	-18.346763	0.000363	3.629212	1.229610	0.000145
 163	8.1000e+00	3.2357	-18.278132	0.000343	3.427589	1.161299	0.000137
 164	8.1500e+00	3.2518	-18.157018	0.000605	6.048687	2.049350	0.000242
 165	8.2000e+00	3.2742	-18.084350	0.000363	3.629212	1.229610	0.000145
 166	8.2500e+00	3.2903	-18.048015	0.000181	1.814606	0.614805	0.000073
 167	8.3000e+00	3.3208	-17.918827	0.000645	6.451932	2.185974	0.000258
 168	8.3500e+00	3.3176	-17.878456	-0.000202	-2.016229	-0.683117	0.000081
 169	8.4000e+00	3.3512	-17.785601	0.000464	4.637326	1.571169	0.000186
 170	8.4500e+00	3.3817	-17.672562	0.000565	5.645441	1.912727	0.000226
 171	8.5000e+00	3.3994	-17.668525	0.000020	0.201623	0.068312	0.000008
 172	8.5500e+00	3.4218	-17.567596	0.000504	5.040572	1.707792	0.000202
 173	8.6000e+00	3.4411	-17.458593	0.000544	5.443818	1.844415	0.000218
 174	8.6500e+00	3.4507	-17.434371	0.000121	1.209737	0.409870	0.000048
 175	8.7000e+00	3.4700	-17.353628	0.000403	4.032458	1.366234	0.000161
 176	8.7500e+00	3.5004	-17.272885	0.000403	4.032458	1.366234	0.000161
 177	8.8000e+00	3.5197	-17.175994	0.000484	4.838949	1.639480	0.000194
 178	8.8500e+00	3.5357	-17.139660	0.000181	1.814606	0.614805	0.000073
 179	8.9000e+00	3.5582	-17.062954	0.000383	3.830835	1.297922	0.000153
 180	8.9500e+00	3.5678	-17.018546	0.000222	2.217852	0.751429	0.000089
 181	9.0000e+00	3.5999	-16.925692	0.000464	4.637326	1.571169	0.000186
 182	9.0500e+00	3.6224	-16.840912	0.000423	4.234081	1.434545	0.000170
 183	9.1000e+00	3.6288	-16.804578	0.000181	1.814606	0.614805	0.000073
 184	9.1500e+00	3.6577	-16.663278	0.000706	7.056801	2.390909	0.000283
 185	9.2000e+00	3.6721	-16.594646	0.000343	3.427589	1.161299	0.000137
 186	9.2500e+00	3.6849	-16.489681	0.000524	5.242195	1.776104	0.000210
 187	9.3000e+00	3.7202	-16.441235	0.000242	2.419475	0.819740	0.000097
 188	9.3500e+00	3.7330	-16.364530	0.000383	3.830835	1.297922	0.000153
 189	9.4000e+00	3.7539	-16.295898	0.000343	3.427589	1.161299	0.000137
 190	9.4500e+00	3.7828	-16.211119	0.000423	4.234081	1.434545	0.000170
 191	9.5000e+00	3.7924	-16.077893	0.000665	6.653555	2.254286	0.000266
 192	9.5500e+00	3.8101	-16.033485	0.000222	2.217852	0.751429	0.000089
 193	9.6000e+00	3.8437	-15.976965	0.000282	2.822720	0.956364	0.000113
 194	9.6500e+00	3.8582	-15.863925	0.000565	5.645441	1.912727	0.000226
 195	9.7000e+00	3.8710	-15.819516	0.000222	2.217852	0.751429	0.000089
 196	9.7500e+00	3.8951	-15.718588	0.000504	5.040572	1.707792	0.000202
 197	9.8000e+00	3.9159	-15.645920	0.000363	3.629212	1.229610	0.000145
 198	9.8500e+00	3.9288	-15.593437	0.000262	2.621098	0.888052	0.000105
 199	9.9000e+00	3.9609	-15.496546	0.000484	4.838949	1.639480	0.000194
 200	9.9500e+00	3.9801	-15.427914	0.000343	3.427589	1.161299	0.000137
 201	1.0000e+01	3.9897	-15.335060	0.000464	4.637326	1.571169	0.000186
 202	1.0050e+01	4.0170	-15.278540	0.000282	2.822720	0.956364	0.000113
 203	1.0100e+01	4.0379	-15.205872	0.000363	3.629212	1.229610	0.000145
 204	1.0150e+01	4.0571	-15.129166	0.000383	3.830835	1.297922	0.000153
 205	1.0200e+01	4.0780	-15.028238	0.000504	5.040572	1.707792	0.000202
 206	1.0250e+01	4.0924	-14.959606	0.000343	3.427589	1.161299	0.000137
 207	1.0300e+01	4.1229	-14.911161	0.000242	2.419475	0.819740	0.000097
 208	1.0350e+01	4.1421	-14.838492	0.000363	3.629212	1.229610	0.000145
 209	1.0400e+01	4.1485	-14.725453	0.000565	5.645441	1.912727	0.000226
 210	1.0450e+01	4.1774	-14.672970	0.000262	2.621098	0.888052	0.000105
 211	1.0500e+01	4.1951	-14.604339	0.000343	3.427589	1.161299	0.000137
 212	1.0550e+01	4.2127	-14.519559	0.000423	4.234081	1.434545	0.000170
 213	1.0600e+01	4.2368	-14.495336	0.000121	1.209737	0.409870	0.000048
 214	1.0650e+01	4.2560	-14.418630	0.000383	3.830835	1.297922	0.000153
 215	1.0700e+01	4.2721	-14.345962	0.000363	3.629212	1.229610	0.000145
 216	1.0750e+01	4.2977	-14.269256	0.000383	3.830835	1.297922	0.000153
 217	1.0800e+01	4.3122	-14.204662	0.000323	3.225966	1.092987	0.000129
 218	1.0850e+01	4.3378	-14.127957	0.000383	3.830835	1.297922	0.000153
 219	1.0900e+01	4.3635	-14.022991	0.000524	5.242195	1.776104	0.000210
 220	1.0950e+01	4.3715	-13.901877	0.000605	6.048687	2.049350	0.000242
 221	1.1000e+01	4.3860	-13.841320	0.000302	3.024343	1.024675	0.000121
 222	1.1050e+01	4.4148	-13.784800	0.000282	2.822720	0.956364	0.000113
 223	1.1100e+01	4.4341	-13.683872	0.000504	5.040572	1.707792	0.000202
 224	1.1150e+01	4.4534	-13.623315	0.000302	3.024343	1.024675	0.000121
 225	1.1200e+01	4.4758	-13.550646	0.000363	3.629212	1.229610	0.000145
 226	1.1250e+01	4.4951	-13.445681	0.000524	5.242195	1.776104	0.000210
 227	1.1300e+01	4.5095	-13.385124	0.000302	3.024343	1.024675	0.000121
 228	1.1350e+01	4.5368	-13.320529	0.000323	3.225966	1.092987	0.000129
 229	1.1400e+01	4.5528	-13.264009	0.000282	2.822720	0.956364	0.000113
 230	1.1450e+01	4.5849	-13.159044	0.000524	5.242195	1.776104	0.000210
 231	1.1500e+01	4.5993	-13.086375	0.000363	3.629212	1.229610	0.000145
 232	1.1550e+01	4.6090	-13.001596	0.000423	4.234081	1.434545	0.000170
 233	1.1600e+01	4.6410	-12.908742	0.000464	4.637326	1.571169	0.000186
 234	1.1650e+01	4.6571	-12.852222	0.000282	2.822720	0.956364	0.000113
 235	1.1700e+01	4.6828	-12.775516	0.000383	3.830835	1.297922	0.000153
 236	1.1750e+01	4.6940	-12.710922	0.000323	3.225966	1.092987	0.000129
 237	1.1800e+01	4.7132	-12.650365	0.000302	3.024343	1.024675	0.000121
 238	1.1850e+01	4.7293	-12.541362	0.000544	5.443818	1.844415	0.000218
 239	1.1900e+01	4.7533	-12.456582	0.000423	4.234081	1.434545	0.000170
 240	1.1950e+01	4.7742	-12.428322	0.000141	1.411360	0.478182	0.000057
 241	1.2000e+01	4.8015	-12.347580	0.000403	4.032458	1.366234	0.000161
 242	1.2050e+01	4.8143	-12.258763	0.000444	4.435703	1.502857	0.000178
 243	1.2100e+01	4.8336	-12.230503	0.000141	1.411360	0.478182	0.000057
 244	1.2150e+01	4.8560	-12.121500	0.000544	5.443818	1.844415	0.000218
 245	1.2200e+01	4.8769	-12.069017	0.000262	2.621098	0.888052	0.000105
 246	1.2250e+01	4.8961	-12.016535	0.000262	2.621098	0.888052	0.000105
 247	1.2300e+01	4.9106	-11.960015	0.000282	2.822720	0.956364	0.000113
 248	1.2350e+01	4.9410	-11.883309	0.000383	3.830835	1.297922	0.000153
 249	1.2400e+01	4.9571	-11.814678	0.000343	3.427589	1.161299	0.000137
 250	1.2450e+01	4.9667	-11.697601	0.000585	5.847064	1.981039	0.000234
 251	1.2500e+01	4.9988	-11.637044	0.000302	3.024343	1.024675	0.000121
 252	1.2550e+01	5.0116	-11.568412	0.000343	3.427589	1.161299	0.000137
 253	1.2600e+01	5.0309	-11.507855	0.000302	3.024343	1.024675	0.000121
 254	1.2650e+01	5.0517	-11.406927	0.000504	5.040572	1.707792	0.000202
 255	1.2700e+01	5.0758	-11.293887	0.000565	5.645441	1.912727	0.000226
 256	1.2750e+01	5.0902	-11.241404	0.000262	2.621098	0.888052	0.000105
 257	1.2800e+01	5.1095	-11.184885	0.000282	2.822720	0.956364	0.000113
 258	1.2850e+01	5.1287	-11.075882	0.000544	5.443818	1.844415	0.000218
 259	1.2900e+01	5.1592	-11.043585	0.000161	1.612983	0.546493	0.000065
 260	1.2950e+01	5.1769	-10.934582	0.000544	5.443818	1.844415	0.000218
 261	1.3000e+01	5.1961	-10.869988	0.000323	3.225966	1.092987	0.000129
 262	1.3050e+01	5.2089	-10.785208	0.000423	4.234081	1.434545	0.000170
 263	1.3100e+01	5.2362	-10.692354	0.000464	4.637326	1.571169	0.000186
 264	1.3150e+01	5.2539	-10.643908	0.000242	2.419475	0.819740	0.000097
 265	1.3200e+01	5.2683	-10.575277	0.000343	3.427589	1.161299	0.000137
 266	1.3250e+01	5.3052	-10.522794	0.000262	2.621098	0.888052	0.000105
 267	1.3300e+01	5.3212	-10.409755	0.000565	5.645441	1.912727	0.000226
 268	1.3350e+01	5.3389	-10.353235	0.000282	2.822720	0.956364	0.000113
 269	1.3400e+01	5.3565	-10.252306	0.000504	5.040572	1.707792	0.000202
 270	1.3450e+01	5.3726	-10.211935	0.000202	2.016229	0.683117	0.000081
 271	1.3500e+01	5.3998	-10.119081	0.000464	4.637326	1.571169	0.000186
 272	1.3550e+01	5.4223	-10.070635	0.000242	2.419475	0.819740	0.000097
 273	1.3600e+01	5.4319	-9.985855	0.000423	4.234081	1.434545	0.000170
 274	1.3650e+01	5.4624	-9.901075	0.000423	4.234081	1.434545	0.000170
 275	1.3700e+01	5.4720	-9.828407	0.000363	3.629212	1.229610	0.000145
 276	1.3750e+01	5.4897	-9.800147	0.000141	1.411360	0.478182	0.000057
 277	1.3800e+01	5.5170	-9.747664	0.000262	2.621098	0.888052	0.000105
 278	1.3850e+01	5.5442	-9.674996	0.000363	3.629212	1.229610	0.000145
 279	1.3900e+01	5.5667	-9.561956	0.000565	5.645441	1.912727	0.000226
 280	1.3950e+01	5.5811	-9.521585	0.000202	2.016229	0.683117	0.000081
 281	1.4000e+01	5.6004	-9.452953	0.000343	3.427589	1.161299	0.000137
 282	1.4050e+01	5.6132	-9.400471	0.000262	2.621098	0.888052	0.000105
 283	1.4100e+01	5.6405	-9.315691	0.000423	4.234081	1.434545	0.000170
 284	1.4150e+01	5.6629	-9.243022	0.000363	3.629212	1.229610	0.000145
 285	1.4200e+01	5.6790	-9.166317	0.000383	3.830835	1.297922	0.000153
 286	1.4250e+01	5.6966	-9.101723	0.000323	3.225966	1.092987	0.000129
 287	1.4300e+01	5.7095	-9.012906	0.000444	4.435703	1.502857	0.000178
 288	1.4350e+01	5.7415	-8.932163	0.000403	4.032458	1.366234	0.000161
 289	1.4400e+01	5.7512	-8.863532	0.000343	3.427589	1.161299	0.000137
 290	1.4450e+01	5.7849	-8.786826	0.000383	3.830835	1.297922	0.000153
 291	1.4500e+01	5.7961	-8.714157	0.000363	3.629212	1.229610	0.000145
 292	1.4550e+01	5.8186	-8.601118	0.000565	5.645441	1.912727	0.000226
 293	1.4600e+01	5.8442	-8.552672	0.000242	2.419475	0.819740	0.000097
 294	1.4650e+01	5.8554	-8.447707	0.000524	5.242195	1.776104	0.000210
 295	1.4700e+01	5.8779	-8.399261	0.000242	2.419475	0.819740	0.000097
 296	1.4750e+01	5.9036	-8.306407	0.000464	4.637326	1.571169	0.000186
 297	1.4800e+01	5.9164	-8.237775	0.000343	3.427589	1.161299	0.000137
 298	1.4850e+01	5.9341	-8.169144	0.000343	3.427589	1.161299	0.000137
 299	1.4900e+01	5.9565	-8.096476	0.000363	3.629212	1.229610	0.000145
 300	1.4950e+01	5.9742	-8.027844	0.000343	3.427589	1.161299	0.000137
 301	1.5000e+01	5.9870	-7.991510	0.000181	1.814606	0.614805	0.000073
 302	1.5050e+01	6.0175	-7.870396	0.000605	6.048687	2.049350	0.000242
 303	1.5100e+01	6.0415	-7.789653	0.000403	4.032458	1.366234	0.000161
 304	1.5150e+01	6.0592	-7.729096	0.000302	3.024343	1.024675	0.000121
 305	1.5200e+01	6.0800	-7.680651	0.000242	2.419475	0.819740	0.000097
 306	1.5250e+01	6.0977	-7.632205	0.000242	2.419475	0.819740	0.000097
 307	1.5300e+01	6.1153	-7.494942	0.000686	6.855178	2.322597	0.000275
 308	1.5350e+01	6.1346	-7.503017	-0.000040	-0.403246	-0.136623	-0.000016
 309	1.5400e+01	6.1554	-7.389977	0.000565	5.645441	1.912727	0.000226
 310	1.5450e+01	6.1715	-7.353643	0.000181	1.814606	0.614805	0.000073
 311	1.5500e+01	6.1972	-7.297123	0.000282	2.822720	0.956364	0.000113
 312	1.5550e+01	6.2180	-7.216380	0.000403	4.032458	1.366234	0.000161
 313	1.5600e+01	6.2373	-7.167935	0.000242	2.419475	0.819740	0.000097
 314	1.5650e+01	6.2597	-7.139675	0.000141	1.411360	0.478182	0.000057
 315	1.5700e+01	6.2726	-7.050858	0.000444	4.435703	1.502857	0.000178
 316	1.5750e+01	6.2998	-6.978189	0.000363	3.629212	1.229610	0.000145
 317	1.5800e+01	6.3143	-6.897446	0.000403	4.032458	1.366234	0.000161
 318	1.5850e+01	6.3399	-6.844964	0.000262	2.621098	0.888052	0.000105
 319	1.5900e+01	6.3608	-6.756147	0.000444	4.435703	1.502857	0.000178
 320	1.5950e+01	6.3784	-6.687515	0.000343	3.427589	1.161299	0.000137
 321	1.6000e+01	6.3961	-6.626958	0.000302	3.024343	1.024675	0.000121
 322	1.6050e+01	6.4298	-6.534104	0.000464	4.637326	1.571169	0.000186
 323	1.6100e+01	6.4346	-6.481621	0.000262	2.621098	0.888052	0.000105
 324	1.6150e+01	6.4570	-6.384730	0.000484	4.838949	1.639480	0.000194
 325	1.6200e+01	6.4699	-6.324173	0.000302	3.024343	1.024675	0.000121
 326	1.6250e+01	6.4939	-6.255542	0.000343	3.427589	1.161299	0.000137
 327	1.6300e+01	6.5132	-6.130391	0.000625	6.250309	2.117662	0.000250
 328	1.6350e+01	6.5372	-6.069834	0.000302	3.024343	1.024675	0.000121
 329	1.6400e+01	6.5565	-5.989091	0.000403	4.032458	1.366234	0.000161
 330	1.6450e+01	6.5693	-5.928534	0.000302	3.024343	1.024675	0.000121
 331	1.6500e+01	6.5918	-5.880088	0.000242	2.419475	0.819740	0.000097
 332	1.6550e+01	6.6110	-5.795308	0.000423	4.234081	1.434545	0.000170
 333	1.6600e+01	6.6383	-5.710529	0.000423	4.234081	1.434545	0.000170
 334	1.6650e+01	6.6544	-5.670157	0.000202	2.016229	0.683117	0.000081
 335	1.6700e+01	6.6768	-5.585377	0.000423	4.234081	1.434545	0.000170
 336	1.6750e+01	6.6929	-5.484449	0.000504	5.040572	1.707792	0.000202
 337	1.6800e+01	6.7073	-5.407743	0.000383	3.830835	1.297922	0.000153
 338	1.6850e+01	6.7362	-5.387558	0.000101	1.008114	0.341558	0.000040
 339	1.6900e+01	6.7490	-5.274518	0.000565	5.645441	1.912727	0.000226
 340	1.6950e+01	6.7731	-5.201849	0.000363	3.629212	1.229610	0.000145
 341	1.7000e+01	6.7923	-5.181664	0.000101	1.008114	0.341558	0.000040
 342	1.7050e+01	6.8052	-5.113032	0.000343	3.427589	1.161299	0.000137
 343	1.7100e+01	6.8372	-5.032290	0.000403	4.032458	1.366234	0.000161
 344	1.7150e+01	6.8517	-4.967696	0.000323	3.225966	1.092987	0.000129
 345	1.7200e+01	6.8806	-4.882916	0.000423	4.234081	1.434545	0.000170
 346	1.7250e+01	6.8886	-4.822359	0.000302	3.024343	1.024675	0.000121
 347	1.7300e+01	6.9110	-4.790062	0.000161	1.612983	0.546493	0.000065
 348	1.7350e+01	6.9367	-4.725467	0.000323	3.225966	1.092987	0.000129
 349	1.7400e+01	6.9463	-4.668947	0.000282	2.822720	0.956364	0.000113
 350	1.7450e+01	6.9784	-4.620502	0.000242	2.419475	0.819740	0.000097
 351	1.7500e+01	6.9929	-4.519573	0.000504	5.040572	1.707792	0.000202
 352	1.7550e+01	7.0169	-4.426719	0.000464	4.637326	1.571169	0.000186
 353	1.7600e+01	7.0330	-4.382311	0.000222	2.217852	0.751429	0.000089
 354	1.7650e+01	7.0506	-4.341939	0.000202	2.016229	0.683117	0.000081
 355	1.7700e+01	7.0843	-4.216788	0.000625	6.250309	2.117662	0.000250
 356	1.7750e+01	7.0923	-4.180454	0.000181	1.814606	0.614805	0.000073
 357	1.7800e+01	7.1132	-4.083563	0.000484	4.838949	1.639480	0.000194
 358	1.7850e+01	7.1292	-4.039154	0.000222	2.217852	0.751429	0.000089
 359	1.7900e+01	7.1549	-3.998783	0.000202	2.016229	0.683117	0.000081
 360	1.7950e+01	7.1773	-3.905929	0.000464	4.637326	1.571169	0.000186
 361	1.8000e+01	7.1966	-3.845372	0.000302	3.024343	1.024675	0.000121
 362	1.8050e+01	7.2158	-3.752518	0.000464	4.637326	1.571169	0.000186
 363	1.8100e+01	7.2367	-3.695998	0.000282	2.822720	0.956364	0.000113
 364	1.8150e+01	7.2463	-3.586995	0.000544	5.443818	1.844415	0.000218
 365	1.8200e+01	7.2736	-3.526438	0.000302	3.024343	1.024675	0.000121
 366	1.8250e+01	7.3057	-3.502215	0.000121	1.209737	0.409870	0.000048
 367	1.8300e+01	7.3041	-3.393213	-0.000544	-5.443818	-1.844415	0.000218
 368	1.8350e+01	7.3329	-3.344767	0.000242	2.419475	0.819740	0.000097
 369	1.8400e+01	7.3554	-3.251913	0.000464	4.637326	1.571169	0.000186
 370	1.8450e+01	7.3714	-3.199430	0.000262	2.621098	0.888052	0.000105
 371	1.8500e+01	7.3971	-3.138873	0.000302	3.024343	1.024675	0.000121
 372	1.8550e+01	7.4212	-3.041982	0.000484	4.838949	1.639480	0.000194
 373	1.8600e+01	7.4372	-3.009685	0.000161	1.612983	0.546493	0.000065
 374	1.8650e+01	7.4485	-2.876459	0.000665	6.653555	2.254286	0.000266
 375	1.8700e+01	7.4645	-2.828014	0.000242	2.419475	0.819740	0.000097
 376	1.8750e+01	7.4870	-2.779568	0.000242	2.419475	0.819740	0.000097
 377	1.8800e+01	7.5142	-2.698825	0.000403	4.032458	1.366234	0.000161
 378	1.8850e+01	7.5351	-2.593860	0.000524	5.242195	1.776104	0.000210
 379	1.8900e+01	7.5463	-2.610008	-0.000081	-0.806492	-0.273247	-0.000032
 380	1.8950e+01	7.5736	-2.509080	0.000504	5.040572	1.707792	0.000202
 381	1.9000e+01	7.5928	-2.484857	0.000121	1.209737	0.409870	0.000048
 382	1.9050e+01	7.6185	-2.432374	0.000262	2.621098	0.888052	0.000105
 383	1.9100e+01	7.6394	-2.355669	0.000383	3.830835	1.297922	0.000153
 384	1.9150e+01	7.6618	-2.315297	0.000202	2.016229	0.683117	0.000081
 385	1.9200e+01	7.6618	-2.230517	-0.000423	-4.234081	-1.434545	0.000170
 386	1.9250e+01	7.6923	-2.178035	0.000262	2.621098	0.888052	0.000105
 387	1.9300e+01	7.7083	-2.089218	0.000444	4.435703	1.502857	0.000178
 388	1.9350e+01	7.7292	-2.044809	0.000222	2.217852	0.751429	0.000089
 389	1.9400e+01	7.7533	-1.951955	0.000464	4.637326	1.571169	0.000186
 390	1.9450e+01	7.7757	-1.907547	0.000222	2.217852	0.751429	0.000089
 391	1.9500e+01	7.7918	-1.842952	0.000323	3.225966	1.092987	0.000129
 392	1.9550e+01	7.8126	-1.774321	0.000343	3.427589	1.161299	0.000137
 393	1.9600e+01	7.8319	-1.677430	0.000484	4.838949	1.639480	0.000194
 394	1.9650e+01	7.8607	-1.645133	0.000161	1.612983	0.546493	0.000065
 395	1.9700e+01	7.8688	-1.568427	0.000383	3.830835	1.297922	0.000153
 396	1.9750e+01	7.8960	-1.475573	0.000464	4.637326	1.571169	0.000186
 397	1.9800e+01	7.9105	-1.390793	0.000423	4.234081	1.434545	0.000170
 398	1.9850e+01	7.9265	-1.301976	0.000444	4.435703	1.502857	0.000178
 399	1.9900e+01	7.9586	-1.253531	0.000242	2.419475	0.819740	0.000097
 400	1.9950e+01	7.9811	-1.176825	0.000383	3.830835	1.297922	0.000153
 401	2.0000e+01	7.9971	-1.108194	0.000343	3.427589	1.161299	0.000137
 402	2.0050e+01	8.0099	-1.043600	0.000323	3.225966	1.092987	0.000129
 403	2.0100e+01	8.0340	-0.979005	0.000323	3.225966	1.092987	0.000129
 404	2.0150e+01	8.0597	-0.894226	0.000423	4.234081	1.434545	0.000170
 405	2.0200e+01	8.0757	-0.837706	0.000282	2.822720	0.956364	0.000113
 406	2.0250e+01	8.0950	-0.805409	0.000161	1.612983	0.546493	0.000065
 407	2.0300e+01	8.1222	-0.696406	0.000544	5.443818	1.844415	0.000218
 408	2.0350e+01	8.1335	-0.660072	0.000181	1.814606	0.614805	0.000073
 409	2.0400e+01	8.1559	-0.619700	0.000202	2.016229	0.683117	0.000081
 410	2.0450e+01	8.1816	-0.506661	0.000565	5.645441	1.912727	0.000226
 411	2.0500e+01	8.1864	-0.454178	0.000262	2.621098	0.888052	0.000105
 412	2.0550e+01	8.2073	-0.389584	0.000323	3.225966	1.092987	0.000129
 413	2.0600e+01	8.2345	-0.337101	0.000262	2.621098	0.888052	0.000105
 414	2.0650e+01	8.2570	-0.284618	0.000262	2.621098	0.888052	0.000105
 415	2.0700e+01	8.2746	-0.207912	0.000383	3.830835	1.297922	0.000153
 416	2.0750e+01	8.2939	-0.175615	0.000161	1.612983	0.546493	0.000065
 417	2.0800e+01	8.3196	-0.098910	0.000383	3.830835	1.297922	0.000153
 418	2.0850e+01	8.3388	-0.074687	0.000121	1.209737	0.409870	0.000048
 419	2.0900e+01	8.3613	0.010093	0.000423	4.234081	1.434545	0.000170
 420	2.0950e+01	8.3757	0.082761	0.000363	3.629212	1.229610	0.000145
 421	2.1000e+01	8.3901	0.131207	0.000242	2.419475	0.819740	0.000097
 422	2.1050e+01	8.4158	0.203875	0.000363	3.629212	1.229610	0.000145
 423	2.1100e+01	8.4302	0.252321	0.000242	2.419475	0.819740	0.000097
 424	2.1150e+01	8.4463	0.329027	0.000383	3.830835	1.297922	0.000153
 425	2.1200e+01	8.4816	0.377472	0.000242	2.419475	0.819740	0.000097
 426	2.1250e+01	8.4960	0.454178	0.000383	3.830835	1.297922	0.000153
 427	2.1300e+01	8.5105	0.526846	0.000363	3.629212	1.229610	0.000145
 428	2.1350e+01	8.5393	0.627775	0.000504	5.040572	1.707792	0.000202
 429	2.1400e+01	8.5490	0.700443	0.000363	3.629212	1.229610	0.000145
 430	2.1450e+01	8.5730	0.732740	0.000161	1.612983	0.546493	0.000065
 431	2.1500e+01	8.6019	0.813483	0.000403	4.032458	1.366234	0.000161
 432	2.1550e+01	8.6163	0.910374	0.000484	4.838949	1.639480	0.000194
 433	2.1600e+01	8.6324	0.946708	0.000181	1.814606	0.614805	0.000073
 434	2.1650e+01	8.6629	1.023414	0.000383	3.830835	1.297922	0.000153
 435	2.1700e+01	8.6805	1.079934	0.000282	2.822720	0.956364	0.000113
 436	2.1750e+01	8.6917	1.172788	0.000464	4.637326	1.571169	0.000186
 437	2.1800e+01	8.7174	1.184899	0.000060	0.604869	0.204935	0.000024
 438	2.1850e+01	8.7350	1.289865	0.000524	5.242195	1.776104	0.000210
 439	2.1900e+01	8.7511	1.350422	0.000302	3.024343	1.024675	0.000121
 440	2.1950e+01	8.7687	1.386756	0.000181	1.814606	0.614805	0.000073
 441	2.2000e+01	8.7912	1.467499	0.000403	4.032458	1.366234	0.000161
 442	2.2050e+01	8.8169	1.532093	0.000323	3.225966	1.092987	0.000129
 443	2.2100e+01	8.8377	1.596687	0.000323	3.225966	1.092987	0.000129
 444	2.2150e+01	8.8586	1.633021	0.000181	1.814606	0.614805	0.000073
 445	2.2200e+01	8.8666	1.693578	0.000302	3.024343	1.024675	0.000121
 446	2.2250e+01	8.8955	1.798544	0.000524	5.242195	1.776104	0.000210
 447	2.2300e+01	8.9243	1.867175	0.000343	3.427589	1.161299	0.000137
 448	2.2350e+01	8.9324	1.903510	0.000181	1.814606	0.614805	0.000073
 449	2.2400e+01	8.9580	1.943881	0.000202	2.016229	0.683117	0.000081
 450	2.2450e+01	8.9837	2.012512	0.000343	3.427589	1.161299	0.000137
 451	2.2500e+01	9.0014	2.077106	0.000323	3.225966	1.092987	0.000129
 452	2.2550e+01	9.0158	2.113441	0.000181	1.814606	0.614805	0.000073
 453	2.2600e+01	9.0382	2.169960	0.000282	2.822720	0.956364	0.000113
 454	2.2650e+01	9.0479	2.234555	0.000323	3.225966	1.092987	0.000129
 455	2.2700e+01	9.0735	2.283000	0.000242	2.419475	0.819740	0.000097
 456	2.2750e+01	9.0944	2.359706	0.000383	3.830835	1.297922	0.000153
 457	2.2800e+01	9.1104	2.412189	0.000262	2.621098	0.888052	0.000105
 458	2.2850e+01	9.1361	2.501006	0.000444	4.435703	1.502857	0.000178
 459	2.2900e+01	9.1586	2.569637	0.000343	3.427589	1.161299	0.000137
 460	2.2950e+01	9.1778	2.642305	0.000363	3.629212	1.229610	0.000145
 461	2.3000e+01	9.2019	2.682677	0.000202	2.016229	0.683117	0.000081
 462	2.3050e+01	9.2083	2.795716	0.000565	5.645441	1.912727	0.000226
 463	2.3100e+01	9.2324	2.852236	0.000282	2.822720	0.956364	0.000113
 464	2.3150e+01	9.2532	2.900682	0.000242	2.419475	0.819740	0.000097
 465	2.3200e+01	9.2773	2.969313	0.000343	3.427589	1.161299	0.000137
 466	2.3250e+01	9.2821	3.033908	0.000323	3.225966	1.092987	0.000129
 467	2.3300e+01	9.3174	3.126762	0.000464	4.637326	1.571169	0.000186
 468	2.3350e+01	9.3286	3.167133	0.000202	2.016229	0.683117	0.000081
 469	2.3400e+01	9.3575	3.231727	0.000323	3.225966	1.092987	0.000129
 470	2.3450e+01	9.3735	3.280173	0.000242	2.419475	0.819740	0.000097
 471	2.3500e+01	9.3944	3.397250	0.000585	5.847064	1.981039	0.000234
 472	2.3550e+01	9.4152	3.409361	0.000060	0.604869	0.204935	0.000024
 473	2.3600e+01	9.4345	3.514327	0.000524	5.242195	1.776104	0.000210
 474	2.3650e+01	9.4521	3.526438	0.000060	0.604869	0.204935	0.000024
 475	2.3700e+01	9.4666	3.570847	0.000222	2.217852	0.751429	0.000089
 476	2.3750e+01	9.4826	3.631404	0.000302	3.024343	1.024675	0.000121
 477	2.3800e+01	9.5211	3.736369	0.000524	5.242195	1.776104	0.000210
 478	2.3850e+01	9.5324	3.809038	0.000363	3.629212	1.229610	0.000145
 479	2.3900e+01	9.5548	3.869595	0.000302	3.024343	1.024675	0.000121
 480	2.3950e+01	9.5741	3.918040	0.000242	2.419475	0.819740	0.000097
 481	2.4000e+01	9.5933	3.954374	0.000181	1.814606	0.614805	0.000073
 482	2.4050e+01	9.6110	4.031080	0.000383	3.830835	1.297922	0.000153
 483	2.4100e+01	9.6446	4.144120	0.000565	5.645441	1.912727	0.000226
 484	2.4150e+01	9.6495	4.184491	0.000202	2.016229	0.683117	0.000081
 485	2.4200e+01	9.6880	4.208714	0.000121	1.209737	0.409870	0.000048
 486	2.4250e+01	9.6960	4.297531	0.000444	4.435703	1.502857	0.000178
 487	2.4300e+01	9.7152	4.277345	-0.000101	-1.008114	-0.341558	-0.000040
 488	2.4350e+01	9.7297	4.374237	0.000484	4.838949	1.639480	0.000194
 489	2.4400e+01	9.7553	4.398459	0.000121	1.209737	0.409870	0.000048
 490	2.4450e+01	9.7762	4.491314	0.000464	4.637326	1.571169	0.000186
 491	2.4500e+01	9.7906	4.555908	0.000323	3.225966	1.092987	0.000129
 492	2.4550e+01	9.8179	4.563982	0.000040	0.403246	0.136623	0.000016
 493	2.4600e+01	9.8372	4.697207	0.000665	6.653555	2.254286	0.000266
 494	2.4650e+01	9.8516	4.773913	0.000383	3.830835	1.297922	0.000153
 495	2.4700e+01	9.8789	4.826396	0.000262	2.621098	0.888052	0.000105
 496	2.4750e+01	9.8981	4.870804	0.000222	2.217852	0.751429	0.000089
 497	2.4800e+01	9.9142	4.955584	0.000423	4.234081	1.434545	0.000170
 498	2.4850e+01	9.9334	4.987881	0.000161	1.612983	0.546493	0.000065
 499	2.4900e+01	9.9511	5.076698	0.000444	4.435703	1.502857	0.000178
 500	2.4950e+01	9.9799	5.173589	0.000484	4.838949	1.639480	0.000194
 501	2.5000e+01	9.9960	5.185701	0.000060	0.604869	0.204935	0.000024
 502	2.5050e+01	10.0056	5.226072	0.000202	2.016229	0.683117	0.000081
 503	2.5100e+01	10.0361	5.310852	0.000423	4.234081	1.434545	0.000170
 504	2.5150e+01	10.0569	5.403706	0.000464	4.637326	1.571169	0.000186
 505	2.5200e+01	10.0730	5.448115	0.000222	2.217852	0.751429	0.000089
 506	2.5250e+01	10.0890	5.508672	0.000302	3.024343	1.024675	0.000121
 507	2.5300e+01	10.1227	5.528857	0.000101	1.008114	0.341558	0.000040
 508	2.5350e+01	10.1420	5.597489	0.000343	3.427589	1.161299	0.000137
 509	2.5400e+01	10.1516	5.722640	0.000625	6.250309	2.117662	0.000250
 510	2.5450e+01	10.1724	5.754937	0.000161	1.612983	0.546493	0.000065
 511	2.5500e+01	10.1901	5.799345	0.000222	2.217852	0.751429	0.000089
 512	2.5550e+01	10.2190	5.896237	0.000484	4.838949	1.639480	0.000194
 513	2.5600e+01	10.2286	5.924497	0.000141	1.411360	0.478182	0.000057
 514	2.5650e+01	10.2607	5.985054	0.000302	3.024343	1.024675	0.000121
 515	2.5700e+01	10.2671	6.041574	0.000282	2.822720	0.956364	0.000113
 516	2.5750e+01	10.2944	6.110205	0.000343	3.427589	1.161299	0.000137
 517	2.5800e+01	10.3104	6.166725	0.000282	2.822720	0.956364	0.000113
 518	2.5850e+01	10.3345	6.223245	0.000282	2.822720	0.956364	0.000113
 519	2.5900e+01	10.3505	6.312062	0.000444	4.435703	1.502857	0.000178
 520	2.5950e+01	10.3714	6.340322	0.000141	1.411360	0.478182	0.000057
 521	2.6000e+01	10.3938	6.412990	0.000363	3.629212	1.229610	0.000145
 522	2.6050e+01	10.4131	6.429139	0.000081	0.806492	0.273247	0.000032
 523	2.6100e+01	10.4339	6.461436	0.000161	1.612983	0.546493	0.000065
 524	2.6150e+01	10.4532	6.530067	0.000343	3.427589	1.161299	0.000137
 525	2.6200e+01	10.4756	6.618884	0.000444	4.435703	1.502857	0.000178
 526	2.6250e+01	10.4917	6.671367	0.000262	2.621098	0.888052	0.000105
 527	2.6300e+01	10.5174	6.711738	0.000202	2.016229	0.683117	0.000081
 528	2.6350e+01	10.5366	6.764221	0.000262	2.621098	0.888052	0.000105
 529	2.6400e+01	10.5559	6.824778	0.000302	3.024343	1.024675	0.000121
 530	2.6450e+01	10.5767	6.881298	0.000282	2.822720	0.956364	0.000113
 531	2.6500e+01	10.5960	6.962041	0.000403	4.032458	1.366234	0.000161
 532	2.6550e+01	10.6104	7.038746	0.000383	3.830835	1.297922	0.000153
 533	2.6600e+01	10.6345	7.107377	0.000343	3.427589	1.161299	0.000137
 534	2.6650e+01	10.6537	7.167935	0.000302	3.024343	1.024675	0.000121
 535	2.6700e+01	10.6794	7.204269	0.000181	1.814606	0.614805	0.000073
 536	2.6750e+01	10.6954	7.268863	0.000323	3.225966	1.092987	0.000129
 537	2.6800e+01	10.7115	7.381903	0.000565	5.645441	1.912727	0.000226
 538	2.6850e+01	10.7371	7.446497	0.000323	3.225966	1.092987	0.000129
 539	2.6900e+01	10.7532	7.438423	-0.000040	-0.403246	-0.136623	-0.000016
 540	2.6950e+01	10.7724	7.527240	0.000444	4.435703	1.502857	0.000178
 541	2.7000e+01	10.7981	7.595871	0.000343	3.427589	1.161299	0.000137
 542	2.7050e+01	10.8222	7.652391	0.000282	2.822720	0.956364	0.000113
 543	2.7100e+01	10.8366	7.696799	0.000222	2.217852	0.751429	0.000089
 544	2.7150e+01	10.8574	7.737171	0.000202	2.016229	0.683117	0.000081
 545	2.7200e+01	10.8655	7.797728	0.000302	3.024343	1.024675	0.000121
 546	2.7250e+01	10.9024	7.866359	0.000343	3.427589	1.161299	0.000137
 547	2.7300e+01	10.9232	7.955176	0.000444	4.435703	1.502857	0.000178
 548	2.7350e+01	10.9264	7.975362	0.000101	1.008114	0.341558	0.000040
 549	2.7400e+01	10.9457	8.052067	0.000383	3.830835	1.297922	0.000153
 550	2.7450e+01	10.9681	8.108587	0.000282	2.822720	0.956364	0.000113
 551	2.7500e+01	10.9922	8.165107	0.000282	2.822720	0.956364	0.000113
 552	2.7550e+01	11.0211	8.257961	0.000464	4.637326	1.571169	0.000186
 553	2.7600e+01	11.0355	8.282184	0.000121	1.209737	0.409870	0.000048
 554	2.7650e+01	11.0548	8.342741	0.000302	3.024343	1.024675	0.000121
 555	2.7700e+01	11.0756	8.399261	0.000282	2.822720	0.956364	0.000113
 556	2.7750e+01	11.0869	8.427521	0.000141	1.411360	0.478182	0.000057
 557	2.7800e+01	11.1205	8.520375	0.000464	4.637326	1.571169	0.000186
 558	2.7850e+01	11.1318	8.556709	0.000181	1.814606	0.614805	0.000073
 559	2.7900e+01	11.1574	8.621303	0.000323	3.225966	1.092987	0.000129
 560	2.7950e+01	11.1719	8.645526	0.000121	1.209737	0.409870	0.000048
 561	2.8000e+01	11.1879	8.766640	0.000605	6.048687	2.049350	0.000242
 562	2.8050e+01	11.2200	8.823160	0.000282	2.822720	0.956364	0.000113
 563	2.8100e+01	11.2232	8.831234	0.000040	0.403246	0.136623	0.000016
 564	2.8150e+01	11.2489	8.924089	0.000464	4.637326	1.571169	0.000186
 565	2.8200e+01	11.2778	8.972534	0.000242	2.419475	0.819740	0.000097
 566	2.8250e+01	11.2970	9.025017	0.000262	2.621098	0.888052	0.000105
 567	2.8300e+01	11.3163	9.085574	0.000302	3.024343	1.024675	0.000121
 568	2.8350e+01	11.3387	9.170354	0.000423	4.234081	1.434545	0.000170
 569	2.8400e+01	11.3516	9.198614	0.000141	1.411360	0.478182	0.000057
 570	2.8450e+01	11.3772	9.287431	0.000444	4.435703	1.502857	0.000178
 571	2.8500e+01	11.3868	9.319728	0.000161	1.612983	0.546493	0.000065
 572	2.8550e+01	11.4157	9.384322	0.000323	3.225966	1.092987	0.000129
 573	2.8600e+01	11.4253	9.404508	0.000101	1.008114	0.341558	0.000040
 574	2.8650e+01	11.4526	9.481213	0.000383	3.830835	1.297922	0.000153
 575	2.8700e+01	11.4687	9.549845	0.000343	3.427589	1.161299	0.000137
 576	2.8750e+01	11.4879	9.598290	0.000242	2.419475	0.819740	0.000097
 577	2.8800e+01	11.5264	9.674996	0.000383	3.830835	1.297922	0.000153
 578	2.8850e+01	11.5328	9.703256	0.000141	1.411360	0.478182	0.000057
 579	2.8900e+01	11.5617	9.763813	0.000302	3.024343	1.024675	0.000121
 580	2.8950e+01	11.5745	9.828407	0.000323	3.225966	1.092987	0.000129
 581	2.9000e+01	11.5874	9.905113	0.000383	3.830835	1.297922	0.000153
 582	2.9050e+01	11.6162	9.929335	0.000121	1.209737	0.409870	0.000048
 583	2.9100e+01	11.6275	10.010078	0.000403	4.032458	1.366234	0.000161
 584	2.9150e+01	11.6564	10.090821	0.000403	4.032458	1.366234	0.000161
 585	2.9200e+01	11.6596	10.127155	0.000181	1.814606	0.614805	0.000073
 586	2.9250e+01	11.6965	10.151378	0.000121	1.209737	0.409870	0.000048
 587	2.9300e+01	11.7157	10.272492	0.000605	6.048687	2.049350	0.000242
 588	2.9350e+01	11.7302	10.324975	0.000262	2.621098	0.888052	0.000105
 589	2.9400e+01	11.7558	10.373420	0.000242	2.419475	0.819740	0.000097
 590	2.9450e+01	11.7799	10.409755	0.000181	1.814606	0.614805	0.000073
 591	2.9500e+01	11.7927	10.470312	0.000302	3.024343	1.024675	0.000121
 592	2.9550e+01	11.8136	10.526831	0.000282	2.822720	0.956364	0.000113
 593	2.9600e+01	11.8376	10.607574	0.000403	4.032458	1.366234	0.000161
 594	2.9650e+01	11.8537	10.688317	0.000403	4.032458	1.366234	0.000161
 595	2.9700e+01	11.8761	10.756948	0.000343	3.427589	1.161299	0.000137
 596	2.9750e+01	11.8986	10.777134	0.000101	1.008114	0.341558	0.000040
 597	2.9800e+01	11.9227	10.817505	0.000202	2.016229	0.683117	0.000081
 598	2.9850e+01	11.9275	10.914396	0.000484	4.838949	1.639480	0.000194
 599	2.9900e+01	11.9547	10.914396	0.000000	0.000000	0.000000	0.000000
 600	2.9950e+01	11.9788	10.942656	0.000141	1.411360	0.478182	0.000057
 601	3.0000e+01	11.9932	11.003213	0.000302	3.024343	1.024675	0.000121
 602	3.0050e+01	12.0173	11.071845	0.000343	3.427589	1.161299	0.000137
 603	3.0100e+01	12.0253	11.180847	0.000544	5.443818	1.844415	0.000218
 604	3.0150e+01	12.0542	11.180847	0.000000	0.000000	0.000000	0.000000
 605	3.0200e+01	12.0767	11.281776	0.000504	5.040572	1.707792	0.000202
 606	3.0250e+01	12.0975	11.342333	0.000302	3.024343	1.024675	0.000121
 607	3.0300e+01	12.1168	11.362519	0.000101	1.008114	0.341558	0.000040
 608	3.0350e+01	12.1280	11.427113	0.000323	3.225966	1.092987	0.000129
 609	3.0400e+01	12.1537	11.483633	0.000282	2.822720	0.956364	0.000113
 610	3.0450e+01	12.1858	11.536115	0.000262	2.621098	0.888052	0.000105
 611	3.0500e+01	12.1986	11.600710	0.000323	3.225966	1.092987	0.000129
 612	3.0550e+01	12.2178	11.681452	0.000403	4.032458	1.366234	0.000161
 613	3.0600e+01	12.2323	11.697601	0.000081	0.806492	0.273247	0.000032
 614	3.0650e+01	12.2563	11.770269	0.000363	3.629212	1.229610	0.000145
 615	3.0700e+01	12.2724	11.798529	0.000141	1.411360	0.478182	0.000057
 616	3.0750e+01	12.3029	11.867161	0.000343	3.427589	1.161299	0.000137
 617	3.0800e+01	12.3157	11.943866	0.000383	3.830835	1.297922	0.000153
 618	3.0850e+01	12.3414	11.996349	0.000262	2.621098	0.888052	0.000105
 619	3.0900e+01	12.3494	12.020572	0.000121	1.209737	0.409870	0.000048
 620	3.0950e+01	12.3799	12.117463	0.000484	4.838949	1.639480	0.000194
 621	3.1000e+01	12.3943	12.182057	0.000323	3.225966	1.092987	0.000129
 622	3.1050e+01	12.4168	12.238577	0.000282	2.822720	0.956364	0.000113
 623	3.1100e+01	12.4312	12.258763	0.000101	1.008114	0.341558	0.000040
 624	3.1150e+01	12.4488	12.319320	0.000302	3.024343	1.024675	0.000121
 625	3.1200e+01	12.4697	12.379877	0.000302	3.024343	1.024675	0.000121
 626	3.1250e+01	12.4986	12.448508	0.000343	3.427589	1.161299	0.000137
 627	3.1300e+01	12.5130	12.492917	0.000222	2.217852	0.751429	0.000089
 628	3.1350e+01	12.5387	12.597882	0.000524	5.242195	1.776104	0.000210
 629	3.1400e+01	12.5515	12.634216	0.000181	1.814606	0.614805	0.000073
 630	3.1450e+01	12.5756	12.706885	0.000363	3.629212	1.229610	0.000145
 631	3.1500e+01	12.5980	12.747256	0.000202	2.016229	0.683117	0.000081
 632	3.1550e+01	12.6205	12.803776	0.000282	2.822720	0.956364	0.000113
 633	3.1600e+01	12.6285	12.860296	0.000282	2.822720	0.956364	0.000113
 634	3.1650e+01	12.6606	12.920853	0.000302	3.024343	1.024675	0.000121
 635	3.1700e+01	12.6654	12.957187	0.000181	1.814606	0.614805	0.000073
 636	3.1750e+01	12.6959	12.997559	0.000202	2.016229	0.683117	0.000081
 637	3.1800e+01	12.7135	13.017744	0.000101	1.008114	0.341558	0.000040
 638	3.1850e+01	12.7344	13.074264	0.000282	2.822720	0.956364	0.000113
 639	3.1900e+01	12.7553	13.134821	0.000302	3.024343	1.024675	0.000121
 640	3.1950e+01	12.7761	13.167118	0.000161	1.612983	0.546493	0.000065
 641	3.2000e+01	12.7825	13.243824	0.000383	3.830835	1.297922	0.000153
 642	3.2050e+01	12.8114	13.304381	0.000302	3.024343	1.024675	0.000121
 643	3.2100e+01	12.8258	13.344752	0.000202	2.016229	0.683117	0.000081
 644	3.2150e+01	12.8515	13.425495	0.000403	4.032458	1.366234	0.000161
 645	3.2200e+01	12.8756	13.441643	0.000081	0.806492	0.273247	0.000032
 646	3.2250e+01	12.8932	13.494126	0.000262	2.621098	0.888052	0.000105
 647	3.2300e+01	12.9044	13.562758	0.000343	3.427589	1.161299	0.000137
 648	3.2350e+01	12.9285	13.619277	0.000282	2.822720	0.956364	0.000113
 649	3.2400e+01	12.9526	13.639463	0.000101	1.008114	0.341558	0.000040
 650	3.2450e+01	12.9702	13.704057	0.000323	3.225966	1.092987	0.000129
 651	3.2500e+01	12.9863	13.780763	0.000383	3.830835	1.297922	0.000153
 652	3.2550e+01	13.0071	13.845357	0.000323	3.225966	1.092987	0.000129
 653	3.2600e+01	13.0312	13.885728	0.000202	2.016229	0.683117	0.000081
 654	3.2650e+01	13.0585	13.934174	0.000242	2.419475	0.819740	0.000097
 655	3.2700e+01	13.0729	13.994731	0.000302	3.024343	1.024675	0.000121
 656	3.2750e+01	13.1018	14.063362	0.000343	3.427589	1.161299	0.000137
 657	3.2800e+01	13.1034	14.095659	0.000161	1.612983	0.546493	0.000065
 658	3.2850e+01	13.1371	14.144105	0.000242	2.419475	0.819740	0.000097
 659	3.2900e+01	13.1515	14.184476	0.000202	2.016229	0.683117	0.000081
 660	3.2950e+01	13.1611	14.277331	0.000464	4.637326	1.571169	0.000186
 661	3.3000e+01	13.1820	14.341925	0.000323	3.225966	1.092987	0.000129
 662	3.3050e+01	13.2093	14.406519	0.000323	3.225966	1.092987	0.000129
 663	3.3100e+01	13.2349	14.471113	0.000323	3.225966	1.092987	0.000129
 664	3.3150e+01	13.2574	14.523596	0.000262	2.621098	0.888052	0.000105
 665	3.3200e+01	13.2734	14.559930	0.000181	1.814606	0.614805	0.000073
 666	3.3250e+01	13.2863	14.628561	0.000343	3.427589	1.161299	0.000137
 667	3.3300e+01	13.3071	14.689118	0.000302	3.024343	1.024675	0.000121
 668	3.3350e+01	13.3312	14.761787	0.000363	3.629212	1.229610	0.000145
 669	3.3400e+01	13.3536	14.773898	0.000060	0.604869	0.204935	0.000024
 670	3.3450e+01	13.3809	14.822344	0.000242	2.419475	0.819740	0.000097
 671	3.3500e+01	13.3905	14.862715	0.000202	2.016229	0.683117	0.000081
 672	3.3550e+01	13.4082	14.935384	0.000363	3.629212	1.229610	0.000145
 673	3.3600e+01	13.4354	14.943458	0.000040	0.403246	0.136623	0.000016
 674	3.3650e+01	13.4499	15.012089	0.000343	3.427589	1.161299	0.000137
 675	3.3700e+01	13.4611	15.024201	0.000060	0.604869	0.204935	0.000024
 676	3.3750e+01	13.4932	15.117055	0.000464	4.637326	1.571169	0.000186
 677	3.3800e+01	13.5157	15.161463	0.000222	2.217852	0.751429	0.000089
 678	3.3850e+01	13.5301	15.254317	0.000464	4.637326	1.571169	0.000186
 679	3.3900e+01	13.5510	15.250280	-0.000020	-0.201623	-0.068312	-0.000008
 680	3.3950e+01	13.5766	15.343134	0.000464	4.637326	1.571169	0.000186
 681	3.4000e+01	13.5959	15.391580	0.000242	2.419475	0.819740	0.000097
 682	3.4050e+01	13.6087	15.427914	0.000181	1.814606	0.614805	0.000073
 683	3.4100e+01	13.6328	15.516731	0.000444	4.435703	1.502857	0.000178
 684	3.4150e+01	13.6504	15.553065	0.000181	1.814606	0.614805	0.000073
 685	3.4200e+01	13.6761	15.577288	0.000121	1.209737	0.409870	0.000048
 686	3.4250e+01	13.6889	15.625734	0.000242	2.419475	0.819740	0.000097
 687	3.4300e+01	13.7050	15.710514	0.000423	4.234081	1.434545	0.000170
 688	3.4350e+01	13.7242	15.775108	0.000323	3.225966	1.092987	0.000129
 689	3.4400e+01	13.7547	15.783182	0.000040	0.403246	0.136623	0.000016
 690	3.4450e+01	13.7643	15.867962	0.000423	4.234081	1.434545	0.000170
 691	3.4500e+01	13.7916	15.940630	0.000363	3.629212	1.229610	0.000145
 692	3.4550e+01	13.8173	15.976965	0.000181	1.814606	0.614805	0.000073
 693	3.4600e+01	13.8333	16.025410	0.000242	2.419475	0.819740	0.000097
 694	3.4650e+01	13.8429	16.069819	0.000222	2.217852	0.751429	0.000089
 695	3.4700e+01	13.8766	16.142487	0.000363	3.629212	1.229610	0.000145
 696	3.4750e+01	13.8830	16.174784	0.000161	1.612983	0.546493	0.000065
 697	3.4800e+01	13.9151	16.227267	0.000262	2.621098	0.888052	0.000105
 698	3.4850e+01	13.9328	16.308010	0.000403	4.032458	1.366234	0.000161
 699	3.4900e+01	13.9520	16.408938	0.000504	5.040572	1.707792	0.000202
 700	3.4950e+01	13.9729	16.461421	0.000262	2.621098	0.888052	0.000105
 701	3.5000e+01	13.9857	16.485644	0.000121	1.209737	0.409870	0.000048
 702	3.5050e+01	14.0130	16.521978	0.000181	1.814606	0.614805	0.000073
 703	3.5100e+01	14.0322	16.602721	0.000403	4.032458	1.366234	0.000161
 704	3.5150e+01	14.0499	16.679426	0.000383	3.830835	1.297922	0.000153
 705	3.5200e+01	14.0739	16.707686	0.000141	1.411360	0.478182	0.000057
 706	3.5250e+01	14.0996	16.752095	0.000222	2.217852	0.751429	0.000089
 707	3.5300e+01	14.1124	16.788429	0.000181	1.814606	0.614805	0.000073
 708	3.5350e+01	14.1333	16.816689	0.000141	1.411360	0.478182	0.000057
 709	3.5400e+01	14.1558	16.857060	0.000202	2.016229	0.683117	0.000081
 710	3.5450e+01	14.1782	16.905506	0.000242	2.419475	0.819740	0.000097
 711	3.5500e+01	14.1910	16.966063	0.000302	3.024343	1.024675	0.000121
 712	3.5550e+01	14.2215	16.978174	0.000060	0.604869	0.204935	0.000024
 713	3.5600e+01	14.2231	17.034694	0.000282	2.822720	0.956364	0.000113
 714	3.5650e+01	14.2568	17.091214	0.000282	2.822720	0.956364	0.000113
 715	3.5700e+01	14.2713	17.155808	0.000323	3.225966	1.092987	0.000129
 716	3.5750e+01	14.3001	17.212328	0.000282	2.822720	0.956364	0.000113
 717	3.5800e+01	14.3065	17.244625	0.000161	1.612983	0.546493	0.000065
 718	3.5850e+01	14.3354	17.321331	0.000383	3.830835	1.297922	0.000153
 719	3.5900e+01	14.3499	17.345554	0.000121	1.209737	0.409870	0.000048
 720	3.5950e+01	14.3723	17.438408	0.000464	4.637326	1.571169	0.000186
 721	3.6000e+01	14.3852	17.458593	0.000101	1.008114	0.341558	0.000040
 722	3.6050e+01	14.4076	17.507039	0.000242	2.419475	0.819740	0.000097
 723	3.6100e+01	14.4285	17.579708	0.000363	3.629212	1.229610	0.000145
 724	3.6150e+01	14.4413	17.632190	0.000262	2.621098	0.888052	0.000105
 725	3.6200e+01	14.4766	17.676599	0.000222	2.217852	0.751429	0.000089
 726	3.6250e+01	14.4894	17.741193	0.000323	3.225966	1.092987	0.000129
 727	3.6300e+01	14.5119	17.769453	0.000141	1.411360	0.478182	0.000057
 728	3.6350e+01	14.5311	17.817899	0.000242	2.419475	0.819740	0.000097
 729	3.6400e+01	14.5424	17.874418	0.000282	2.822720	0.956364	0.000113
 730	3.6450e+01	14.5600	17.926901	0.000262	2.621098	0.888052	0.000105
 731	3.6500e+01	14.5985	17.975347	0.000242	2.419475	0.819740	0.000097
 732	3.6550e+01	14.6097	18.043978	0.000343	3.427589	1.161299	0.000137
 733	3.6600e+01	14.6290	18.108572	0.000323	3.225966	1.092987	0.000129
 734	3.6650e+01	14.6515	18.181241	0.000363	3.629212	1.229610	0.000145
 735	3.6700e+01	14.6707	18.233724	0.000262	2.621098	0.888052	0.000105
 736	3.6750e+01	14.6948	18.294281	0.000302	3.024343	1.024675	0.000121
 737	3.6800e+01	14.7140	18.346763	0.000262	2.621098	0.888052	0.000105
 738	3.6850e+01	14.7365	18.395209	0.000242	2.419475	0.819740	0.000097
 739	3.6900e+01	14.7509	18.455766	0.000302	3.024343	1.024675	0.000121
 740	3.6950e+01	14.7670	18.484026	0.000141	1.411360	0.478182	0.000057
 741	3.7000e+01	14.7926	18.584954	0.000504	5.040572	1.707792	0.000202
 742	3.7050e+01	14.8087	18.593029	0.000040	0.403246	0.136623	0.000016
 743	3.7100e+01	14.8295	18.637437	0.000222	2.217852	0.751429	0.000089
 744	3.7150e+01	14.8504	18.693957	0.000282	2.822720	0.956364	0.000113
 745	3.7200e+01	14.8777	18.710106	0.000081	0.806492	0.273247	0.000032
 746	3.7250e+01	14.8825	18.754514	0.000222	2.217852	0.751429	0.000089
 747	3.7300e+01	14.9065	18.758551	0.000020	0.201623	0.068312	0.000008
 748	3.7350e+01	14.9178	18.843331	0.000423	4.234081	1.434545	0.000170
 749	3.7400e+01	14.9450	18.879665	0.000181	1.814606	0.614805	0.000073
 750	3.7450e+01	14.9675	18.928111	0.000242	2.419475	0.819740	0.000097
 751	3.7500e+01	14.9851	18.988668	0.000302	3.024343	1.024675	0.000121
 752	3.7550e+01	15.0092	19.025002	0.000181	1.814606	0.614805	0.000073
 753	3.7600e+01	15.0268	19.097671	0.000363	3.629212	1.229610	0.000145
 754	3.7650e+01	15.0589	19.129968	0.000161	1.612983	0.546493	0.000065
 755	3.7700e+01	15.0621	19.146116	0.000081	0.806492	0.273247	0.000032
 756	3.7750e+01	15.0926	19.182450	0.000181	1.814606	0.614805	0.000073
 757	3.7800e+01	15.1039	19.230896	0.000242	2.419475	0.819740	0.000097
 758	3.7850e+01	15.1391	19.299527	0.000343	3.427589	1.161299	0.000137
 759	3.7900e+01	15.1568	19.384307	0.000423	4.234081	1.434545	0.000170
 760	3.7950e+01	15.1680	19.424679	0.000202	2.016229	0.683117	0.000081
 761	3.8000e+01	15.1873	19.489273	0.000323	3.225966	1.092987	0.000129
 762	3.8050e+01	15.2081	19.537718	0.000242	2.419475	0.819740	0.000097
 763	3.8100e+01	15.2306	19.565978	0.000141	1.411360	0.478182	0.000057
 764	3.8150e+01	15.2418	19.650758	0.000423	4.234081	1.434545	0.000170
 765	3.8200e+01	15.2691	19.695167	0.000222	2.217852	0.751429	0.000089
 766	3.8250e+01	15.2948	19.727464	0.000161	1.612983	0.546493	0.000065
 767	3.8300e+01	15.3108	19.767835	0.000202	2.016229	0.683117	0.000081
 768	3.8350e+01	15.3252	19.860689	0.000464	4.637326	1.571169	0.000186
 769	3.8400e+01	15.3525	19.925283	0.000323	3.225966	1.092987	0.000129
 770	3.8450e+01	15.3782	19.989878	0.000323	3.225966	1.092987	0.000129
 771	3.8500e+01	15.3910	20.030249	0.000202	2.016229	0.683117	0.000081
 772	3.8550e+01	15.4151	20.094843	0.000323	3.225966	1.092987	0.000129
 773	3.8600e+01	15.4327	20.127140	0.000161	1.612983	0.546493	0.000065
 774	3.8650e+01	15.4504	20.199809	0.000363	3.629212	1.229610	0.000145
 775	3.8700e+01	15.4728	20.232106	0.000161	1.612983	0.546493	0.000065
 776	3.8750e+01	15.4937	20.268440	0.000181	1.814606	0.614805	0.000073
 777	3.8800e+01	15.5177	20.320923	0.000262	2.621098	0.888052	0.000105
 778	3.8850e+01	15.5354	20.377443	0.000282	2.822720	0.956364	0.000113
 779	3.8900e+01	15.5466	20.417814	0.000202	2.016229	0.683117	0.000081
 780	3.8950e+01	15.5787	20.486445	0.000343	3.427589	1.161299	0.000137
 781	3.9000e+01	15.5883	20.514705	0.000141	1.411360	0.478182	0.000057
 782	3.9050e+01	15.6044	20.551039	0.000181	1.814606	0.614805	0.000073
 783	3.9100e+01	15.6268	20.615634	0.000323	3.225966	1.092987	0.000129
 784	3.9150e+01	15.6573	20.615634	0.000000	0.000000	0.000000	0.000000
 785	3.9200e+01	15.6669	20.656005	0.000202	2.016229	0.683117	0.000081
 786	3.9250e+01	15.6926	20.720599	0.000323	3.225966	1.092987	0.000129
 787	3.9300e+01	15.7151	20.720599	0.000000	0.000000	0.000000	0.000000
 788	3.9350e+01	15.7295	20.785193	0.000323	3.225966	1.092987	0.000129
 789	3.9400e+01	15.7488	20.845750	0.000302	3.024343	1.024675	0.000121
 790	3.9450e+01	15.7696	20.926493	0.000403	4.032458	1.366234	0.000161
 791	3.9500e+01	15.7937	20.914382	-0.000060	-0.604869	-0.204935	-0.000024
 792	3.9550e+01	15.8145	20.966864	0.000262	2.621098	0.888052	0.000105
 793	3.9600e+01	15.8258	21.031459	0.000323	3.225966	1.092987	0.000129
 794	3.9650e+01	15.8450	21.051644	0.000101	1.008114	0.341558	0.000040
 795	3.9700e+01	15.8659	21.144498	0.000464	4.637326	1.571169	0.000186
 796	3.9750e+01	15.8931	21.156610	0.000060	0.604869	0.204935	0.000024
 797	3.9800e+01	15.8979	21.221204	0.000323	3.225966	1.092987	0.000129
 798	3.9850e+01	15.9284	21.289835	0.000343	3.427589	1.161299	0.000137
 799	3.9900e+01	15.9445	21.322132	0.000161	1.612983	0.546493	0.000065
 800	3.9950e+01	15.9733	21.402875	0.000403	4.032458	1.366234	0.000161
 801	4.0000e+01	15.9926	21.455358	0.000262	2.621098	0.888052	0.000105
 802	4.0050e+01	16.0118	21.475544	0.000101	1.008114	0.341558	0.000040
 803	4.0100e+01	16.0311	21.532063	0.000282	2.822720	0.956364	0.000113
 804	4.0150e+01	16.0616	21.588583	0.000282	2.822720	0.956364	0.000113
 805	4.0200e+01	16.0696	21.665289	0.000383	3.830835	1.297922	0.000153
 806	4.0250e+01	16.0808	21.721809	0.000282	2.822720	0.956364	0.000113
 807	4.0300e+01	16.1049	21.782366	0.000302	3.024343	1.024675	0.000121
 808	4.0350e+01	16.1290	21.818700	0.000181	1.814606	0.614805	0.000073
 809	4.0400e+01	16.1482	21.879257	0.000302	3.024343	1.024675	0.000121
 810	4.0450e+01	16.1707	21.935777	0.000282	2.822720	0.956364	0.000113
 811	4.0500e+01	16.1963	21.972111	0.000181	1.814606	0.614805	0.000073
 812	4.0550e+01	16.2156	22.044780	0.000363	3.629212	1.229610	0.000145
 813	4.0600e+01	16.2204	22.077077	0.000161	1.612983	0.546493	0.000065
 814	4.0650e+01	16.2509	22.077077	0.000000	0.000000	0.000000	0.000000
 815	4.0700e+01	16.2717	22.165894	0.000444	4.435703	1.502857	0.000178
 816	4.0750e+01	16.2974	22.214339	0.000242	2.419475	0.819740	0.000097
 817	4.0800e+01	16.3183	22.254711	0.000202	2.016229	0.683117	0.000081
 818	4.0850e+01	16.3279	22.295082	0.000202	2.016229	0.683117	0.000081
 819	4.0900e+01	16.3487	22.327379	0.000161	1.612983	0.546493	0.000065
 820	4.0950e+01	16.3728	22.367751	0.000202	2.016229	0.683117	0.000081
 821	4.1000e+01	16.3824	22.432345	0.000323	3.225966	1.092987	0.000129
 822	4.1050e+01	16.4113	22.480790	0.000242	2.419475	0.819740	0.000097
 823	4.1100e+01	16.4241	22.492902	0.000060	0.604869	0.204935	0.000024
 824	4.1150e+01	16.4466	22.529236	0.000181	1.814606	0.614805	0.000073
 825	4.1200e+01	16.4674	22.553459	0.000121	1.209737	0.409870	0.000048
 826	4.1250e+01	16.4867	22.614016	0.000302	3.024343	1.024675	0.000121
 827	4.1300e+01	16.5140	22.694759	0.000403	4.032458	1.366234	0.000161
 828	4.1350e+01	16.5268	22.731093	0.000181	1.814606	0.614805	0.000073
 829	4.1400e+01	16.5541	22.771464	0.000202	2.016229	0.683117	0.000081
 830	4.1450e+01	16.5733	22.795687	0.000121	1.209737	0.409870	0.000048
 831	4.1500e+01	16.5910	22.876430	0.000403	4.032458	1.366234	0.000161
 832	4.1550e+01	16.6118	22.900652	0.000121	1.209737	0.409870	0.000048
 833	4.1600e+01	16.6391	22.973321	0.000363	3.629212	1.229610	0.000145
 834	4.1650e+01	16.6487	22.993507	0.000101	1.008114	0.341558	0.000040
 835	4.1700e+01	16.6616	23.066175	0.000363	3.629212	1.229610	0.000145
 836	4.1750e+01	16.6904	23.062138	-0.000020	-0.201623	-0.068312	-0.000008
 837	4.1800e+01	16.7257	23.150955	0.000444	4.435703	1.502857	0.000178
 838	4.1850e+01	16.7305	23.211512	0.000302	3.024343	1.024675	0.000121
 839	4.1900e+01	16.7498	23.268032	0.000282	2.822720	0.956364	0.000113
 840	4.1950e+01	16.7739	23.312440	0.000222	2.217852	0.751429	0.000089
 841	4.2000e+01	16.7915	23.393183	0.000403	4.032458	1.366234	0.000161
 842	4.2050e+01	16.8092	23.465851	0.000363	3.629212	1.229610	0.000145
 843	4.2100e+01	16.8332	23.469889	0.000020	0.201623	0.068312	0.000008
 844	4.2150e+01	16.8428	23.526409	0.000282	2.822720	0.956364	0.000113
 845	4.2200e+01	16.8765	23.562743	0.000181	1.814606	0.614805	0.000073
 846	4.2250e+01	16.8878	23.619263	0.000282	2.822720	0.956364	0.000113
 847	4.2300e+01	16.9102	23.667708	0.000242	2.419475	0.819740	0.000097
 848	4.2350e+01	16.9343	23.736340	0.000343	3.427589	1.161299	0.000137
 849	4.2400e+01	16.9616	23.809008	0.000363	3.629212	1.229610	0.000145
 850	4.2450e+01	16.9696	23.821119	0.000060	0.604869	0.204935	0.000024
 851	4.2500e+01	16.9872	23.849379	0.000141	1.411360	0.478182	0.000057
 852	4.2550e+01	17.0113	23.918011	0.000343	3.427589	1.161299	0.000137
 853	4.2600e+01	17.0321	23.950308	0.000161	1.612983	0.546493	0.000065
 854	4.2650e+01	17.0482	23.986642	0.000181	1.814606	0.614805	0.000073
 855	4.2700e+01	17.0674	24.022976	0.000181	1.814606	0.614805	0.000073
 856	4.2750e+01	17.0963	24.022976	0.000000	0.000000	0.000000	0.000000
 857	4.2800e+01	17.1091	24.111793	0.000444	4.435703	1.502857	0.000178
 858	4.2850e+01	17.1380	24.115830	0.000020	0.201623	0.068312	0.000008
 859	4.2900e+01	17.1428	24.164276	0.000242	2.419475	0.819740	0.000097
 860	4.2950e+01	17.1781	24.216759	0.000262	2.621098	0.888052	0.000105
 861	4.3000e+01	17.1845	24.277316	0.000302	3.024343	1.024675	0.000121
 862	4.3050e+01	17.2022	24.321724	0.000222	2.217852	0.751429	0.000089
 863	4.3100e+01	17.2327	24.370170	0.000242	2.419475	0.819740	0.000097
 864	4.3150e+01	17.2519	24.430727	0.000302	3.024343	1.024675	0.000121
 865	4.3200e+01	17.2696	24.483210	0.000262	2.621098	0.888052	0.000105
 866	4.3250e+01	17.2936	24.503395	0.000101	1.008114	0.341558	0.000040
 867	4.3300e+01	17.3065	24.547804	0.000222	2.217852	0.751429	0.000089
 868	4.3350e+01	17.3353	24.612398	0.000323	3.225966	1.092987	0.000129
 869	4.3400e+01	17.3530	24.656807	0.000222	2.217852	0.751429	0.000089
 870	4.3450e+01	17.3754	24.701215	0.000222	2.217852	0.751429	0.000089
 871	4.3500e+01	17.3835	24.749661	0.000242	2.419475	0.819740	0.000097
 872	4.3550e+01	17.4107	24.777921	0.000141	1.411360	0.478182	0.000057
 873	4.3600e+01	17.4300	24.858663	0.000403	4.032458	1.366234	0.000161
 874	4.3650e+01	17.4589	24.907109	0.000242	2.419475	0.819740	0.000097
 875	4.3700e+01	17.4605	24.911146	0.000020	0.201623	0.068312	0.000008
 876	4.3750e+01	17.4926	24.995926	0.000423	4.234081	1.434545	0.000170
 877	4.3800e+01	17.5118	25.032260	0.000181	1.814606	0.614805	0.000073
 878	4.3850e+01	17.5262	25.096854	0.000323	3.225966	1.092987	0.000129
 879	4.3900e+01	17.5471	25.173560	0.000383	3.830835	1.297922	0.000153
 880	4.3950e+01	17.5663	25.213931	0.000202	2.016229	0.683117	0.000081
 881	4.4000e+01	17.5952	25.278525	0.000323	3.225966	1.092987	0.000129
 882	4.4050e+01	17.6097	25.310823	0.000161	1.612983	0.546493	0.000065
 883	4.4100e+01	17.6289	25.379454	0.000343	3.427589	1.161299	0.000137
 884	4.4150e+01	17.6466	25.431937	0.000262	2.621098	0.888052	0.000105
 885	4.4200e+01	17.6674	25.464234	0.000161	1.612983	0.546493	0.000065
 886	4.4250e+01	17.6851	25.496531	0.000161	1.612983	0.546493	0.000065
 887	4.4300e+01	17.7059	25.557088	0.000302	3.024343	1.024675	0.000121
 888	4.4350e+01	17.7396	25.605533	0.000242	2.419475	0.819740	0.000097
 889	4.4400e+01	17.7556	25.653979	0.000242	2.419475	0.819740	0.000097
 890	4.4450e+01	17.7685	25.666090	0.000060	0.604869	0.204935	0.000024
 891	4.4500e+01	17.7909	25.662053	-0.000020	-0.201623	-0.068312	-0.000008
 892	4.4550e+01	17.8166	25.706462	0.000222	2.217852	0.751429	0.000089
 893	4.4600e+01	17.8327	25.779130	0.000363	3.629212	1.229610	0.000145
 894	4.4650e+01	17.8471	25.779130	0.000000	0.000000	0.000000	0.000000
 895	4.4700e+01	17.8776	25.847762	0.000343	3.427589	1.161299	0.000137
 896	4.4750e+01	17.9016	25.912356	0.000323	3.225966	1.092987	0.000129
 897	4.4800e+01	17.9048	25.932541	0.000101	1.008114	0.341558	0.000040
 898	4.4850e+01	17.9273	26.025396	0.000464	4.637326	1.571169	0.000186
 899	4.4900e+01	17.9578	26.021358	-0.000020	-0.201623	-0.068312	-0.000008
 900	4.4950e+01	17.9658	26.089990	0.000343	3.427589	1.161299	0.000137
 901	4.5000e+01	17.9883	26.110175	0.000101	1.008114	0.341558	0.000040
 902	4.5050e+01	18.0139	26.194955	0.000423	4.234081	1.434545	0.000170
 903	4.5100e+01	18.0236	26.243401	0.000242	2.419475	0.819740	0.000097
 904	4.5150e+01	18.0444	26.255512	0.000060	0.604869	0.204935	0.000024
 905	4.5200e+01	18.0701	26.328181	0.000363	3.629212	1.229610	0.000145
 906	4.5250e+01	18.0925	26.344329	0.000081	0.806492	0.273247	0.000032
 907	4.5300e+01	18.1070	26.437183	0.000464	4.637326	1.571169	0.000186
 908	4.5350e+01	18.1326	26.445258	0.000040	0.403246	0.136623	0.000016
 909	4.5400e+01	18.1535	26.526000	0.000403	4.032458	1.366234	0.000161
 910	4.5450e+01	18.1695	26.526000	0.000000	0.000000	0.000000	0.000000
 911	4.5500e+01	18.1856	26.606743	0.000403	4.032458	1.366234	0.000161
 912	4.5550e+01	18.2048	26.659226	0.000262	2.621098	0.888052	0.000105
 913	4.5600e+01	18.2353	26.671337	0.000060	0.604869	0.204935	0.000024
 914	4.5650e+01	18.2465	26.760154	0.000444	4.435703	1.502857	0.000178
 915	4.5700e+01	18.2674	26.764191	0.000020	0.201623	0.068312	0.000008
 916	4.5750e+01	18.2931	26.861083	0.000484	4.838949	1.639480	0.000194
 917	4.5800e+01	18.3043	26.962011	0.000504	5.040572	1.707792	0.000202
 918	4.5850e+01	18.3252	26.962011	0.000000	0.000000	0.000000	0.000000
 919	4.5900e+01	18.3508	27.054865	0.000464	4.637326	1.571169	0.000186
 920	4.5950e+01	18.3669	27.083125	0.000141	1.411360	0.478182	0.000057
 921	4.6000e+01	18.3877	27.115422	0.000161	1.612983	0.546493	0.000065
 922	4.6050e+01	18.4054	27.167905	0.000262	2.621098	0.888052	0.000105
 923	4.6100e+01	18.4326	27.220388	0.000262	2.621098	0.888052	0.000105
 924	4.6150e+01	18.4583	27.268833	0.000242	2.419475	0.819740	0.000097
 925	4.6200e+01	18.4808	27.276908	0.000040	0.403246	0.136623	0.000016
 926	4.6250e+01	18.4824	27.293056	0.000081	0.806492	0.273247	0.000032
 927	4.6300e+01	18.5209	27.345539	0.000262	2.621098	0.888052	0.000105
 928	4.6350e+01	18.5337	27.414170	0.000343	3.427589	1.161299	0.000137
 929	4.6400e+01	18.5530	27.430319	0.000081	0.806492	0.273247	0.000032
 930	4.6450e+01	18.5786	27.470690	0.000202	2.016229	0.683117	0.000081
 931	4.6500e+01	18.5834	27.527210	0.000282	2.822720	0.956364	0.000113
 932	4.6550e+01	18.6075	27.591804	0.000323	3.225966	1.092987	0.000129
 933	4.6600e+01	18.6332	27.611990	0.000101	1.008114	0.341558	0.000040
 934	4.6650e+01	18.6396	27.668510	0.000282	2.822720	0.956364	0.000113
 935	4.6700e+01	18.6685	27.712918	0.000222	2.217852	0.751429	0.000089
 936	4.6750e+01	18.6925	27.720993	0.000040	0.403246	0.136623	0.000016
 937	4.6800e+01	18.7054	27.785587	0.000323	3.225966	1.092987	0.000129
 938	4.6850e+01	18.7358	27.838069	0.000262	2.621098	0.888052	0.000105
 939	4.6900e+01	18.7487	27.874404	0.000181	1.814606	0.614805	0.000073
 940	4.6950e+01	18.7824	27.926886	0.000262	2.621098	0.888052	0.000105
 941	4.7000e+01	18.7936	27.955146	0.000141	1.411360	0.478182	0.000057
 942	4.7050e+01	18.8096	28.039926	0.000423	4.234081	1.434545	0.000170
 943	4.7100e+01	18.8305	28.112595	0.000363	3.629212	1.229610	0.000145
 944	4.7150e+01	18.8481	28.124706	0.000060	0.604869	0.204935	0.000024
 945	4.7200e+01	18.8658	28.157003	0.000161	1.612983	0.546493	0.000065
 946	4.7250e+01	18.8914	28.209486	0.000262	2.621098	0.888052	0.000105
 947	4.7300e+01	18.9203	28.266006	0.000282	2.822720	0.956364	0.000113
 948	4.7350e+01	18.9267	28.294266	0.000141	1.411360	0.478182	0.000057
 949	4.7400e+01	18.9476	28.387120	0.000464	4.637326	1.571169	0.000186
 950	4.7450e+01	18.9701	28.419417	0.000161	1.612983	0.546493	0.000065
 951	4.7500e+01	18.9829	28.479974	0.000302	3.024343	1.024675	0.000121
 952	4.7550e+01	19.0070	28.524383	0.000222	2.217852	0.751429	0.000089
 953	4.7600e+01	19.0294	28.568791	0.000222	2.217852	0.751429	0.000089
 954	4.7650e+01	19.0551	28.633385	0.000323	3.225966	1.092987	0.000129
 955	4.7700e+01	19.0695	28.677794	0.000222	2.217852	0.751429	0.000089
 956	4.7750e+01	19.0904	28.710091	0.000161	1.612983	0.546493	0.000065
 957	4.7800e+01	19.1064	28.770648	0.000302	3.024343	1.024675	0.000121
 958	4.7850e+01	19.1353	28.774685	0.000020	0.201623	0.068312	0.000008
 959	4.7900e+01	19.1561	28.815056	0.000202	2.016229	0.683117	0.000081
 960	4.7950e+01	19.1722	28.843316	0.000141	1.411360	0.478182	0.000057
 961	4.8000e+01	19.1946	28.887725	0.000222	2.217852	0.751429	0.000089
 962	4.8050e+01	19.2219	28.903873	0.000081	0.806492	0.273247	0.000032
 963	4.8100e+01	19.2348	28.988653	0.000423	4.234081	1.434545	0.000170
 964	4.8150e+01	19.2524	29.012876	0.000121	1.209737	0.409870	0.000048
 965	4.8200e+01	19.2749	29.097656	0.000423	4.234081	1.434545	0.000170
 966	4.8250e+01	19.2909	29.109767	0.000060	0.604869	0.204935	0.000024
 967	4.8300e+01	19.3134	29.142064	0.000161	1.612983	0.546493	0.000065
 968	4.8350e+01	19.3342	29.206658	0.000323	3.225966	1.092987	0.000129
 969	4.8400e+01	19.3454	29.194547	-0.000060	-0.604869	-0.204935	-0.000024
 970	4.8450e+01	19.3679	29.307587	0.000565	5.645441	1.912727	0.000226
 971	4.8500e+01	19.3855	29.356033	0.000242	2.419475	0.819740	0.000097
 972	4.8550e+01	19.4112	29.380255	0.000121	1.209737	0.409870	0.000048
 973	4.8600e+01	19.4273	29.416590	0.000181	1.814606	0.614805	0.000073
 974	4.8650e+01	19.4449	29.452924	0.000181	1.814606	0.614805	0.000073
 975	4.8700e+01	19.4658	29.533666	0.000403	4.032458	1.366234	0.000161
 976	4.8750e+01	19.4882	29.598261	0.000323	3.225966	1.092987	0.000129
 977	4.8800e+01	19.5075	29.622483	0.000121	1.209737	0.409870	0.000048
 978	4.8850e+01	19.5331	29.695152	0.000363	3.629212	1.229610	0.000145
 979	4.8900e+01	19.5540	29.711300	0.000081	0.806492	0.273247	0.000032
 980	4.8950e+01	19.5652	29.735523	0.000121	1.209737	0.409870	0.000048
 981	4.9000e+01	19.5989	29.840489	0.000524	5.242195	1.776104	0.000210
 982	4.9050e+01	19.6117	29.868749	0.000141	1.411360	0.478182	0.000057
 983	4.9100e+01	19.6358	29.892972	0.000121	1.209737	0.409870	0.000048
 984	4.9150e+01	19.6390	29.949491	0.000282	2.822720	0.956364	0.000113
 985	4.9200e+01	19.6711	30.030234	0.000403	4.032458	1.366234	0.000161
 986	4.9250e+01	19.6936	30.074643	0.000222	2.217852	0.751429	0.000089
 987	4.9300e+01	19.7080	30.078680	0.000020	0.201623	0.068312	0.000008
 988	4.9350e+01	19.7256	30.175571	0.000484	4.838949	1.639480	0.000194
 989	4.9400e+01	19.7513	30.203831	0.000141	1.411360	0.478182	0.000057
 990	4.9450e+01	19.7706	30.300722	0.000484	4.838949	1.639480	0.000194
 991	4.9500e+01	19.7786	30.324945	0.000121	1.209737	0.409870	0.000048
 992	4.9550e+01	19.8139	30.361279	0.000181	1.814606	0.614805	0.000073
 993	4.9600e+01	19.8299	30.361279	0.000000	0.000000	0.000000	0.000000
 994	4.9650e+01	19.8508	30.413762	0.000262	2.621098	0.888052	0.000105
 995	4.9700e+01	19.8636	30.442022	0.000141	1.411360	0.478182	0.000057
 996	4.9750e+01	19.8941	30.506616	0.000323	3.225966	1.092987	0.000129
 997	4.9800e+01	19.9117	30.530839	0.000121	1.209737	0.409870	0.000048
 998	4.9850e+01	19.9278	30.563136	0.000161	1.612983	0.546493	0.000065
 999	4.9900e+01	19.9454	30.627730	0.000323	3.225966	1.092987	0.000129
1000	4.9950e+01	19.9743	30.672139	0.000222	2.217852	0.751429	0.000089
1001	5.0000e+01	19.9887	30.696362	0.000121	1.209737	0.409870	0.000048
1002	5.0050e+01	19.9711	30.680213	0.000081	0.806492	0.273247	-0.000032
1003	5.0100e+01	19.9518	30.668102	0.000060	0.604869	0.204935	-0.000024
1004	5.0150e+01	19.9374	30.615619	0.000262	2.621098	0.888052	-0.000105
1005	5.0200e+01	19.9133	30.623693	-0.000040	-0.403246	-0.136623	0.000016
1006	5.0250e+01	19.8893	30.579285	0.000222	2.217852	0.751429	-0.000089
1007	5.0300e+01	19.8636	30.530839	0.000242	2.419475	0.819740	-0.000097
1008	5.0350e+01	19.8540	30.530839	-0.000000	-0.000000	-0.000000	0.000000
1009	5.0400e+01	19.8299	30.490468	0.000202	2.016229	0.683117	-0.000081
1010	5.0450e+01	19.8187	30.458171	0.000161	1.612983	0.546493	-0.000065
1011	5.0500e+01	19.7930	30.405688	0.000262	2.621098	0.888052	-0.000105
1012	5.0550e+01	19.7658	30.401651	0.000020	0.201623	0.068312	-0.000008
1013	5.0600e+01	19.7449	30.353205	0.000242	2.419475	0.819740	-0.000097
1014	5.0650e+01	19.7240	30.328982	0.000121	1.209737	0.409870	-0.000048
1015	5.0700e+01	19.7000	30.300722	0.000141	1.411360	0.478182	-0.000057
1016	5.0750e+01	19.7032	30.288611	-0.000060	-0.604869	-0.204935	-0.000024
1017	5.0800e+01	19.6631	30.211905	0.000383	3.830835	1.297922	-0.000153
1018	5.0850e+01	19.6486	30.228054	-0.000081	-0.806492	-0.273247	0.000032
1019	5.0900e+01	19.6230	30.203831	0.000121	1.209737	0.409870	-0.000048
1020	5.0950e+01	19.6053	30.203831	-0.000000	-0.000000	-0.000000	0.000000
1021	5.1000e+01	19.5877	30.183645	0.000101	1.008114	0.341558	-0.000040
1022	5.1050e+01	19.5668	30.123088	0.000302	3.024343	1.024675	-0.000121
1023	5.1100e+01	19.5412	30.070606	0.000262	2.621098	0.888052	-0.000105
1024	5.1150e+01	19.5363	30.094828	-0.000121	-1.209737	-0.409870	0.000048
1025	5.1200e+01	19.5091	30.038308	0.000282	2.822720	0.956364	-0.000113
1026	5.1250e+01	19.4882	30.018123	0.000101	1.008114	0.341558	-0.000040
1027	5.1300e+01	19.4609	29.981789	0.000181	1.814606	0.614805	-0.000073
1028	5.1350e+01	19.4561	29.925269	0.000282	2.822720	0.956364	-0.000113
1029	5.1400e+01	19.4321	29.945454	-0.000101	-1.008114	-0.341558	0.000040
1030	5.1450e+01	19.4048	29.864712	0.000403	4.032458	1.366234	-0.000161
1031	5.1500e+01	19.3936	29.832415	0.000161	1.612983	0.546493	-0.000065
1032	5.1550e+01	19.3791	29.727449	0.000524	5.242195	1.776104	-0.000210
1033	5.1600e+01	19.3567	29.739560	-0.000060	-0.604869	-0.204935	0.000024
1034	5.1650e+01	19.3326	29.699189	0.000202	2.016229	0.683117	-0.000081
1035	5.1700e+01	19.3102	29.662855	0.000181	1.814606	0.614805	-0.000073
1036	5.1750e+01	19.2941	29.602298	0.000302	3.024343	1.024675	-0.000121
1037	5.1800e+01	19.2749	29.586149	0.000081	0.806492	0.273247	-0.000032
1038	5.1850e+01	19.2572	29.553852	0.000161	1.612983	0.546493	-0.000065
1039	5.1900e+01	19.2267	29.501369	0.000262	2.621098	0.888052	-0.000105
1040	5.1950e+01	19.2123	29.505407	-0.000020	-0.201623	-0.068312	0.000008
1041	5.2000e+01	19.1866	29.465035	0.000202	2.016229	0.683117	-0.000081
1042	5.2050e+01	19.1802	29.452924	0.000060	0.604869	0.204935	-0.000024
1043	5.2100e+01	19.1545	29.404478	0.000242	2.419475	0.819740	-0.000097
1044	5.2150e+01	19.1305	29.327773	0.000383	3.830835	1.297922	-0.000153
1045	5.2200e+01	19.1080	29.327773	-0.000000	-0.000000	-0.000000	0.000000
1046	5.2250e+01	19.0888	29.287401	0.000202	2.016229	0.683117	-0.000081
1047	5.2300e+01	19.0711	29.271253	0.000081	0.806492	0.273247	-0.000032
1048	5.2350e+01	19.0503	29.251067	0.000101	1.008114	0.341558	-0.000040
1049	5.2400e+01	19.0342	29.182436	0.000343	3.427589	1.161299	-0.000137
1050	5.2450e+01	19.0134	29.158213	0.000121	1.209737	0.409870	-0.000048
1051	5.2500e+01	18.9941	29.129953	0.000141	1.411360	0.478182	-0.000057
1052	5.2550e+01	18.9684	29.077470	0.000262	2.621098	0.888052	-0.000105
1053	5.2600e+01	18.9588	29.117842	-0.000202	-2.016229	-0.683117	0.000081
1054	5.2650e+01	18.9235	29.041136	0.000383	3.830835	1.297922	-0.000153
1055	5.2700e+01	18.9139	29.053247	-0.000060	-0.604869	-0.204935	0.000024
1056	5.2750e+01	18.8995	29.016913	0.000181	1.814606	0.614805	-0.000073
1057	5.2800e+01	18.8610	28.992690	0.000121	1.209737	0.409870	-0.000048
1058	5.2850e+01	18.8562	28.944245	0.000242	2.419475	0.819740	-0.000097
1059	5.2900e+01	18.8289	28.932133	0.000060	0.604869	0.204935	-0.000024
1060	5.2950e+01	18.8032	28.891762	0.000202	2.016229	0.683117	-0.000081
1061	5.3000e+01	18.7936	28.887725	0.000020	0.201623	0.068312	-0.000008
1062	5.3050e+01	18.7663	28.811019	0.000383	3.830835	1.297922	-0.000153
1063	5.3100e+01	18.7487	28.790834	0.000101	1.008114	0.341558	-0.000040
1064	5.3150e+01	18.7294	28.742388	0.000242	2.419475	0.819740	-0.000097
1065	5.3200e+01	18.7150	28.689905	0.000262	2.621098	0.888052	-0.000105
1066	5.3250e+01	18.6893	28.629348	0.000302	3.024343	1.024675	-0.000121
1067	5.3300e+01	18.6685	28.649534	-0.000101	-1.008114	-0.341558	0.000040
1068	5.3350e+01	18.6476	28.544568	0.000524	5.242195	1.776104	-0.000210
1069	5.3400e+01	18.6284	28.508234	0.000181	1.814606	0.614805	-0.000073
1070	5.3450e+01	18.6027	28.479974	0.000141	1.411360	0.478182	-0.000057
1071	5.3500e+01	18.5850	28.435566	0.000222	2.217852	0.751429	-0.000089
1072	5.3550e+01	18.5642	28.411343	0.000121	1.209737	0.409870	-0.000048
1073	5.3600e+01	18.5594	28.387120	0.000121	1.209737	0.409870	-0.000048
1074	5.3650e+01	18.5353	28.314451	0.000363	3.629212	1.229610	-0.000145
1075	5.3700e+01	18.5064	28.314451	-0.000000	-0.000000	-0.000000	0.000000
1076	5.3750e+01	18.4872	28.270043	0.000222	2.217852	0.751429	-0.000089
1077	5.3800e+01	18.4727	28.233709	0.000181	1.814606	0.614805	-0.000073
1078	5.3850e+01	18.4503	28.165077	0.000343	3.427589	1.161299	-0.000137
1079	5.3900e+01	18.4310	28.157003	0.000040	0.403246	0.136623	-0.000016
1080	5.3950e+01	18.4134	28.124706	0.000161	1.612983	0.546493	-0.000065
1081	5.4000e+01	18.3909	28.076260	0.000242	2.419475	0.819740	-0.000097
1082	5.4050e+01	18.3733	28.019741	0.000282	2.822720	0.956364	-0.000113
1083	5.4100e+01	18.3460	27.963221	0.000282	2.822720	0.956364	-0.000113
1084	5.4150e+01	18.3300	27.963221	-0.000000	-0.000000	-0.000000	0.000000
1085	5.4200e+01	18.3203	27.938998	0.000121	1.209737	0.409870	-0.000048
1086	5.4250e+01	18.2963	27.934961	0.000020	0.201623	0.068312	-0.000008
1087	5.4300e+01	18.2722	27.906701	0.000141	1.411360	0.478182	-0.000057
1088	5.4350e+01	18.2546	27.821921	0.000423	4.234081	1.434545	-0.000170
1089	5.4400e+01	18.2241	27.829995	-0.000040	-0.403246	-0.136623	0.000016
1090	5.4450e+01	18.2113	27.789624	0.000202	2.016229	0.683117	-0.000081
1091	5.4500e+01	18.1904	27.789624	-0.000000	-0.000000	-0.000000	0.000000
1092	5.4550e+01	18.1663	27.757327	0.000161	1.612983	0.546493	-0.000065
1093	5.4600e+01	18.1487	27.672547	0.000423	4.234081	1.434545	-0.000170
1094	5.4650e+01	18.1230	27.644287	0.000141	1.411360	0.478182	-0.000057
1095	5.4700e+01	18.1086	27.644287	-0.000000	-0.000000	-0.000000	0.000000
1096	5.4750e+01	18.0909	27.595841	0.000242	2.419475	0.819740	-0.000097
1097	5.4800e+01	18.0733	27.559507	0.000181	1.814606	0.614805	-0.000073
1098	5.4850e+01	18.0460	27.502987	0.000282	2.822720	0.956364	-0.000113
1099	5.4900e+01	18.0316	27.502987	-0.000000	-0.000000	-0.000000	0.000000
1100	5.4950e+01	18.0091	27.442430	0.000302	3.024343	1.024675	-0.000121
1101	5.5000e+01	17.9931	27.398022	0.000222	2.217852	0.751429	-0.000089
1102	5.5050e+01	17.9722	27.349576	0.000242	2.419475	0.819740	-0.000097
1103	5.5100e+01	17.9466	27.329390	0.000101	1.008114	0.341558	-0.000040
1104	5.5150e+01	17.9305	27.284982	0.000222	2.217852	0.751429	-0.000089
1105	5.5200e+01	17.9048	27.212313	0.000363	3.629212	1.229610	-0.000145
1106	5.5250e+01	17.8904	27.143682	0.000343	3.427589	1.161299	-0.000137
1107	5.5300e+01	17.8679	27.103311	0.000202	2.016229	0.683117	-0.000081
1108	5.5350e+01	17.8583	27.099274	0.000020	0.201623	0.068312	-0.000008
1109	5.5400e+01	17.8327	27.066977	0.000161	1.612983	0.546493	-0.000065
1110	5.5450e+01	17.8022	27.026605	0.000202	2.016229	0.683117	-0.000081
1111	5.5500e+01	17.7974	26.986234	0.000202	2.016229	0.683117	-0.000081
1112	5.5550e+01	17.7701	26.949900	0.000181	1.814606	0.614805	-0.000073
1113	5.5600e+01	17.7556	26.909528	0.000202	2.016229	0.683117	-0.000081
1114	5.5650e+01	17.7300	26.877231	0.000161	1.612983	0.546493	-0.000065
1115	5.5700e+01	17.7091	26.816674	0.000302	3.024343	1.024675	-0.000121
1116	5.5750e+01	17.6979	26.792451	0.000121	1.209737	0.409870	-0.000048
1117	5.5800e+01	17.6546	26.752080	0.000202	2.016229	0.683117	-0.000081
1118	5.5850e+01	17.6498	26.707671	0.000222	2.217852	0.751429	-0.000089
1119	5.5900e+01	17.6369	26.687486	0.000101	1.008114	0.341558	-0.000040
1120	5.5950e+01	17.6145	26.639040	0.000242	2.419475	0.819740	-0.000097
1121	5.6000e+01	17.5824	26.606743	0.000161	1.612983	0.546493	-0.000065
1122	5.6050e+01	17.5808	26.554260	0.000262	2.621098	0.888052	-0.000105
1123	5.6100e+01	17.5615	26.521963	0.000161	1.612983	0.546493	-0.000065
1124	5.6150e+01	17.5343	26.517926	0.000020	0.201623	0.068312	-0.000008
1125	5.6200e+01	17.5086	26.497740	0.000101	1.008114	0.341558	-0.000040
1126	5.6250e+01	17.4926	26.429109	0.000343	3.427589	1.161299	-0.000137
1127	5.6300e+01	17.4781	26.429109	-0.000000	-0.000000	-0.000000	0.000000
1128	5.6350e+01	17.4524	26.404886	0.000121	1.209737	0.409870	-0.000048
1129	5.6400e+01	17.4284	26.348366	0.000282	2.822720	0.956364	-0.000113
1130	5.6450e+01	17.4091	26.299921	0.000242	2.419475	0.819740	-0.000097
1131	5.6500e+01	17.3931	26.312032	-0.000060	-0.604869	-0.204935	0.000024
1132	5.6550e+01	17.3738	26.263587	0.000242	2.419475	0.819740	-0.000097
1133	5.6600e+01	17.3418	26.190918	0.000363	3.629212	1.229610	-0.000145
1134	5.6650e+01	17.3321	26.170732	0.000101	1.008114	0.341558	-0.000040
1135	5.6700e+01	17.3049	26.138435	0.000161	1.612983	0.546493	-0.000065
1136	5.6750e+01	17.2920	26.114213	0.000121	1.209737	0.409870	-0.000048
1137	5.6800e+01	17.2664	26.057693	0.000282	2.822720	0.956364	-0.000113
1138	5.6850e+01	17.2487	26.029433	0.000141	1.411360	0.478182	-0.000057
1139	5.6900e+01	17.2311	25.976950	0.000262	2.621098	0.888052	-0.000105
1140	5.6950e+01	17.2102	25.964838	0.000060	0.604869	0.204935	-0.000024
1141	5.7000e+01	17.1845	25.880059	0.000423	4.234081	1.434545	-0.000170
1142	5.7050e+01	17.1685	25.827576	0.000262	2.621098	0.888052	-0.000105
1143	5.7100e+01	17.1557	25.750870	0.000383	3.830835	1.297922	-0.000153
1144	5.7150e+01	17.1300	25.734722	0.000081	0.806492	0.273247	-0.000032
1145	5.7200e+01	17.1188	25.690313	0.000222	2.217852	0.751429	-0.000089
1146	5.7250e+01	17.0899	25.662053	0.000141	1.411360	0.478182	-0.000057
1147	5.7300e+01	17.0755	25.625719	0.000181	1.814606	0.614805	-0.000073
1148	5.7350e+01	17.0466	25.573236	0.000262	2.621098	0.888052	-0.000105
1149	5.7400e+01	17.0386	25.553051	0.000101	1.008114	0.341558	-0.000040
1150	5.7450e+01	17.0049	25.488456	0.000323	3.225966	1.092987	-0.000129
1151	5.7500e+01	16.9888	25.468271	0.000101	1.008114	0.341558	-0.000040
1152	5.7550e+01	16.9648	25.403677	0.000323	3.225966	1.092987	-0.000129
1153	5.7600e+01	16.9519	25.427899	-0.000121	-1.209737	-0.409870	0.000048
1154	5.7650e+01	16.9311	25.310823	0.000585	5.847064	1.981039	-0.000234
1155	5.7700e+01	16.9086	25.310823	-0.000000	-0.000000	-0.000000	0.000000
1156	5.7750e+01	16.8846	25.286600	0.000121	1.209737	0.409870	-0.000048
1157	5.7800e+01	16.8717	25.242191	0.000222	2.217852	0.751429	-0.000089
1158	5.7850e+01	16.8525	25.213931	0.000141	1.411360	0.478182	-0.000057
1159	5.7900e+01	16.8220	25.169523	0.000222	2.217852	0.751429	-0.000089
1160	5.7950e+01	16.8043	25.129151	0.000202	2.016229	0.683117	-0.000081
1161	5.8000e+01	16.7899	25.125114	0.000020	0.201623	0.068312	-0.000008
1162	5.8050e+01	16.7674	25.068594	0.000282	2.822720	0.956364	-0.000113
1163	5.8100e+01	16.7514	25.052446	0.000081	0.806492	0.273247	-0.000032
1164	5.8150e+01	16.7321	25.012074	0.000202	2.016229	0.683117	-0.000081
1165	5.8200e+01	16.7161	24.971703	0.000202	2.016229	0.683117	-0.000081
1166	5.8250e+01	16.7017	24.931332	0.000202	2.016229	0.683117	-0.000081
1167	5.8300e+01	16.6632	24.911146	0.000101	1.008114	0.341558	-0.000040
1168	5.8350e+01	16.6407	24.846552	0.000323	3.225966	1.092987	-0.000129
1169	5.8400e+01	16.6343	24.810218	0.000181	1.814606	0.614805	-0.000073
1170	5.8450e+01	16.6134	24.785995	0.000121	1.209737	0.409870	-0.000048
1171	5.8500e+01	16.5846	24.753698	0.000161	1.612983	0.546493	-0.000065
1172	5.8550e+01	16.5717	24.681029	0.000363	3.629212	1.229610	-0.000145
1173	5.8600e+01	16.5541	24.644695	0.000181	1.814606	0.614805	-0.000073
1174	5.8650e+01	16.5300	24.608361	0.000181	1.814606	0.614805	-0.000073
1175	5.8700e+01	16.5156	24.563952	0.000222	2.217852	0.751429	-0.000089
1176	5.8750e+01	16.4883	24.511470	0.000262	2.621098	0.888052	-0.000105
1177	5.8800e+01	16.4674	24.446875	0.000323	3.225966	1.092987	-0.000129
1178	5.8850e+01	16.4594	24.418616	0.000141	1.411360	0.478182	-0.000057
1179	5.8900e+01	16.4209	24.362096	0.000282	2.822720	0.956364	-0.000113
1180	5.8950e+01	16.4049	24.269241	0.000464	4.637326	1.571169	-0.000186
1181	5.9000e+01	16.3808	24.273279	-0.000020	-0.201623	-0.068312	0.000008
1182	5.9050e+01	16.3680	24.232907	0.000202	2.016229	0.683117	-0.000081
1183	5.9100e+01	16.3487	24.208684	0.000121	1.209737	0.409870	-0.000048
1184	5.9150e+01	16.3359	24.156202	0.000262	2.621098	0.888052	-0.000105
1185	5.9200e+01	16.3183	24.107756	0.000242	2.419475	0.819740	-0.000097
1186	5.9250e+01	16.2862	24.043162	0.000323	3.225966	1.092987	-0.000129
1187	5.9300e+01	16.2653	24.022976	0.000101	1.008114	0.341558	-0.000040
1188	5.9350e+01	16.2461	24.002791	0.000101	1.008114	0.341558	-0.000040
1189	5.9400e+01	16.2268	23.926085	0.000383	3.830835	1.297922	-0.000153
1190	5.9450e+01	16.1979	23.938196	-0.000060	-0.604869	-0.204935	0.000024
1191	5.9500e+01	16.1899	23.861491	0.000383	3.830835	1.297922	-0.000153
1192	5.9550e+01	16.1707	23.845342	0.000081	0.806492	0.273247	-0.000032
1193	5.9600e+01	16.1498	23.800934	0.000222	2.217852	0.751429	-0.000089
1194	5.9650e+01	16.1225	23.768637	0.000161	1.612983	0.546493	-0.000065
1195	5.9700e+01	16.1049	23.768637	-0.000000	-0.000000	-0.000000	0.000000
1196	5.9750e+01	16.0840	23.700005	0.000343	3.427589	1.161299	-0.000137
1197	5.9800e+01	16.0744	23.663671	0.000181	1.814606	0.614805	-0.000073
1198	5.9850e+01	16.0487	23.639448	0.000121	1.209737	0.409870	-0.000048
1199	5.9900e+01	16.0231	23.582928	0.000282	2.822720	0.956364	-0.000113
1200	5.9950e+01	16.0022	23.578891	0.000020	0.201623	0.068312	-0.000008
1201	6.0000e+01	15.9910	23.550631	0.000141	1.411360	0.478182	-0.000057
1202	6.0050e+01	15.9717	23.473926	0.000383	3.830835	1.297922	-0.000153
1203	6.0100e+01	15.9605	23.449703	0.000121	1.209737	0.409870	-0.000048
1204	6.0150e+01	15.9268	23.417406	0.000161	1.612983	0.546493	-0.000065
1205	6.0200e+01	15.9076	23.356849	0.000302	3.024343	1.024675	-0.000121
1206	6.0250e+01	15.8979	23.312440	0.000222	2.217852	0.751429	-0.000089
1207	6.0300e+01	15.8707	23.292255	0.000101	1.008114	0.341558	-0.000040
1208	6.0350e+01	15.8578	23.268032	0.000121	1.209737	0.409870	-0.000048
1209	6.0400e+01	15.8370	23.219586	0.000242	2.419475	0.819740	-0.000097
1210	6.0450e+01	15.8017	23.118658	0.000504	5.040572	1.707792	-0.000202
1211	6.0500e+01	15.8001	23.118658	-0.000000	-0.000000	-0.000000	0.000000
1212	6.0550e+01	15.7744	23.041952	0.000383	3.830835	1.297922	-0.000153
1213	6.0600e+01	15.7488	22.965247	0.000383	3.830835	1.297922	-0.000153
1214	6.0650e+01	15.7263	22.912764	0.000262	2.621098	0.888052	-0.000105
1215	6.0700e+01	15.7119	22.872393	0.000202	2.016229	0.683117	-0.000081
1216	6.0750e+01	15.6894	22.860281	0.000060	0.604869	0.204935	-0.000024
1217	6.0800e+01	15.6701	22.827984	0.000161	1.612983	0.546493	-0.000065
1218	6.0850e+01	15.6445	22.775501	0.000262	2.621098	0.888052	-0.000105
1219	6.0900e+01	15.6349	22.706870	0.000343	3.427589	1.161299	-0.000137
1220	6.0950e+01	15.6140	22.670536	0.000181	1.814606	0.614805	-0.000073
1221	6.1000e+01	15.5771	22.634202	0.000181	1.814606	0.614805	-0.000073
1222	6.1050e+01	15.5707	22.585756	0.000242	2.419475	0.819740	-0.000097
1223	6.1100e+01	15.5514	22.541347	0.000222	2.217852	0.751429	-0.000089
1224	6.1150e+01	15.5338	22.513087	0.000141	1.411360	0.478182	-0.000057
1225	6.1200e+01	15.5049	22.472716	0.000202	2.016229	0.683117	-0.000081
1226	6.1250e+01	15.4889	22.432345	0.000202	2.016229	0.683117	-0.000081
1227	6.1300e+01	15.4744	22.420233	0.000060	0.604869	0.204935	-0.000024
1228	6.1350e+01	15.4504	22.339491	0.000403	4.032458	1.366234	-0.000161
1229	6.1400e+01	15.4327	22.315268	0.000121	1.209737	0.409870	-0.000048
1230	6.1450e+01	15.4103	22.307194	0.000040	0.403246	0.136623	-0.000016
1231	6.1500e+01	15.3926	22.250674	0.000282	2.822720	0.956364	-0.000113
1232	6.1550e+01	15.3750	22.242599	0.000040	0.403246	0.136623	-0.000016
1233	6.1600e+01	15.3445	22.226451	0.000081	0.806492	0.273247	-0.000032
1234	6.1650e+01	15.3284	22.133597	0.000464	4.637326	1.571169	-0.000186
1235	6.1700e+01	15.3076	22.121485	0.000060	0.604869	0.204935	-0.000024
1236	6.1750e+01	15.2867	22.093225	0.000141	1.411360	0.478182	-0.000057
1237	6.1800e+01	15.2691	22.040743	0.000262	2.621098	0.888052	-0.000105
1238	6.1850e+01	15.2498	21.980186	0.000302	3.024343	1.024675	-0.000121
1239	6.1900e+01	15.2370	21.984223	-0.000020	-0.201623	-0.068312	0.000008
1240	6.1950e+01	15.2161	21.879257	0.000524	5.242195	1.776104	-0.000210
1241	6.2000e+01	15.1889	21.850997	0.000141	1.411360	0.478182	-0.000057
1242	6.2050e+01	15.1648	21.826774	0.000121	1.209737	0.409870	-0.000048
1243	6.2100e+01	15.1472	21.798514	0.000141	1.411360	0.478182	-0.000057
1244	6.2150e+01	15.1327	21.709697	0.000444	4.435703	1.502857	-0.000178
1245	6.2200e+01	15.1087	21.693549	0.000081	0.806492	0.273247	-0.000032
1246	6.2250e+01	15.0926	21.649140	0.000222	2.217852	0.751429	-0.000089
1247	6.2300e+01	15.0670	21.584546	0.000323	3.225966	1.092987	-0.000129
1248	6.2350e+01	15.0525	21.515915	0.000343	3.427589	1.161299	-0.000137
1249	6.2400e+01	15.0349	21.455358	0.000302	3.024343	1.024675	-0.000121
1250	6.2450e+01	15.0124	21.423061	0.000161	1.612983	0.546493	-0.000065
1251	6.2500e+01	14.9916	21.350392	0.000363	3.629212	1.229610	-0.000145
1252	6.2550e+01	14.9675	21.366541	-0.000081	-0.806492	-0.273247	0.000032
1253	6.2600e+01	14.9402	21.277724	0.000444	4.435703	1.502857	-0.000178
1254	6.2650e+01	14.9242	21.245427	0.000161	1.612983	0.546493	-0.000065
1255	6.2700e+01	14.9033	21.196981	0.000242	2.419475	0.819740	-0.000097
1256	6.2750e+01	14.8937	21.136424	0.000302	3.024343	1.024675	-0.000121
1257	6.2800e+01	14.8744	21.087979	0.000242	2.419475	0.819740	-0.000097
1258	6.2850e+01	14.8536	21.075867	0.000060	0.604869	0.204935	-0.000024
1259	6.2900e+01	14.8279	21.015310	0.000302	3.024343	1.024675	-0.000121
1260	6.2950e+01	14.8071	20.962827	0.000262	2.621098	0.888052	-0.000105
1261	6.3000e+01	14.7990	20.970902	-0.000040	-0.403246	-0.136623	0.000016
1262	6.3050e+01	14.7718	20.890159	0.000403	4.032458	1.366234	-0.000161
1263	6.3100e+01	14.7461	20.898233	-0.000040	-0.403246	-0.136623	0.000016
1264	6.3150e+01	14.7253	20.805379	0.000464	4.637326	1.571169	-0.000186
1265	6.3200e+01	14.7124	20.805379	-0.000000	-0.000000	-0.000000	0.000000
1266	6.3250e+01	14.6980	20.773082	0.000161	1.612983	0.546493	-0.000065
1267	6.3300e+01	14.6739	20.736748	0.000181	1.814606	0.614805	-0.000073
1268	6.3350e+01	14.6563	20.728673	0.000040	0.403246	0.136623	-0.000016
1269	6.3400e+01	14.6274	20.680228	0.000242	2.419475	0.819740	-0.000097
1270	6.3450e+01	14.6178	20.615634	0.000323	3.225966	1.092987	-0.000129
1271	6.3500e+01	14.5905	20.571225	0.000222	2.217852	0.751429	-0.000089
1272	6.3550e+01	14.5761	20.571225	-0.000000	-0.000000	-0.000000	0.000000
1273	6.3600e+01	14.5504	20.490482	0.000403	4.032458	1.366234	-0.000161
1274	6.3650e+01	14.5279	20.442037	0.000242	2.419475	0.819740	-0.000097
1275	6.3700e+01	14.5103	20.373406	0.000343	3.427589	1.161299	-0.000137
1276	6.3750e+01	14.5023	20.365331	0.000040	0.403246	0.136623	-0.000016
1277	6.3800e+01	14.4686	20.345146	0.000101	1.008114	0.341558	-0.000040
1278	6.3850e+01	14.4445	20.280551	0.000323	3.225966	1.092987	-0.000129
1279	6.3900e+01	14.4317	20.224031	0.000282	2.822720	0.956364	-0.000113
1280	6.3950e+01	14.4060	20.171549	0.000262	2.621098	0.888052	-0.000105
1281	6.4000e+01	14.3852	20.074657	0.000484	4.838949	1.639480	-0.000194
1282	6.4050e+01	14.3691	20.078695	-0.000020	-0.201623	-0.068312	0.000008
1283	6.4100e+01	14.3627	20.022175	0.000282	2.822720	0.956364	-0.000113
1284	6.4150e+01	14.3274	19.969692	0.000262	2.621098	0.888052	-0.000105
1285	6.4200e+01	14.3098	19.913172	0.000282	2.822720	0.956364	-0.000113
1286	6.4250e+01	14.2921	19.844541	0.000343	3.427589	1.161299	-0.000137
1287	6.4300e+01	14.2729	19.828392	0.000081	0.806492	0.273247	-0.000032
1288	6.4350e+01	14.2488	19.775909	0.000262	2.621098	0.888052	-0.000105
1289	6.4400e+01	14.2279	19.715352	0.000302	3.024343	1.024675	-0.000121
1290	6.4450e+01	14.2039	19.683055	0.000161	1.612983	0.546493	-0.000065
1291	6.4500e+01	14.1910	19.630573	0.000262	2.621098	0.888052	-0.000105
1292	6.4550e+01	14.1798	19.586164	0.000222	2.217852	0.751429	-0.000089
1293	6.4600e+01	14.1461	19.513496	0.000363	3.629212	1.229610	-0.000145
1294	6.4650e+01	14.1301	19.517533	-0.000020	-0.201623	-0.068312	0.000008
1295	6.4700e+01	14.1124	19.444864	0.000363	3.629212	1.229610	-0.000145
1296	6.4750e+01	14.0868	19.384307	0.000302	3.024343	1.024675	-0.000121
1297	6.4800e+01	14.0739	19.368159	0.000081	0.806492	0.273247	-0.000032
1298	6.4850e+01	14.0563	19.275305	0.000464	4.637326	1.571169	-0.000186
1299	6.4900e+01	14.0242	19.259156	0.000081	0.806492	0.273247	-0.000032
1300	6.4950e+01	14.0098	19.243007	0.000081	0.806492	0.273247	-0.000032
1301	6.5000e+01	13.9889	19.230896	0.000060	0.604869	0.204935	-0.000024
1302	6.5050e+01	13.9681	19.182450	0.000242	2.419475	0.819740	-0.000097
1303	6.5100e+01	13.9504	19.142079	0.000202	2.016229	0.683117	-0.000081
1304	6.5150e+01	13.9263	19.085559	0.000282	2.822720	0.956364	-0.000113
1305	6.5200e+01	13.9007	19.069411	0.000081	0.806492	0.273247	-0.000032
1306	6.5250e+01	13.8862	19.012891	0.000282	2.822720	0.956364	-0.000113
1307	6.5300e+01	13.8638	18.972519	0.000202	2.016229	0.683117	-0.000081
1308	6.5350e+01	13.8542	18.956371	0.000081	0.806492	0.273247	-0.000032
1309	6.5400e+01	13.8285	18.891777	0.000323	3.225966	1.092987	-0.000129
1310	6.5450e+01	13.8124	18.811034	0.000403	4.032458	1.366234	-0.000161
1311	6.5500e+01	13.7932	18.802960	0.000040	0.403246	0.136623	-0.000016
1312	6.5550e+01	13.7723	18.762588	0.000202	2.016229	0.683117	-0.000081
1313	6.5600e+01	13.7467	18.693957	0.000343	3.427589	1.161299	-0.000137
1314	6.5650e+01	13.7258	18.637437	0.000282	2.822720	0.956364	-0.000113
1315	6.5700e+01	13.7130	18.637437	-0.000000	-0.000000	-0.000000	0.000000
1316	6.5750e+01	13.6889	18.552657	0.000423	4.234081	1.434545	-0.000170
1317	6.5800e+01	13.6713	18.492100	0.000302	3.024343	1.024675	-0.000121
1318	6.5850e+01	13.6536	18.439617	0.000262	2.621098	0.888052	-0.000105
1319	6.5900e+01	13.6215	18.407320	0.000161	1.612983	0.546493	-0.000065
1320	6.5950e+01	13.6199	18.278132	0.000645	6.451932	2.185974	-0.000258
1321	6.6000e+01	13.5879	18.278132	-0.000000	-0.000000	-0.000000	0.000000
1322	6.6050e+01	13.5734	18.237761	0.000202	2.016229	0.683117	-0.000081
1323	6.6100e+01	13.5574	18.144907	0.000464	4.637326	1.571169	-0.000186
1324	6.6150e+01	13.5317	18.132795	0.000060	0.604869	0.204935	-0.000024
1325	6.6200e+01	13.5076	18.084350	0.000242	2.419475	0.819740	-0.000097
1326	6.6250e+01	13.4948	18.064164	0.000101	1.008114	0.341558	-0.000040
1327	6.6300e+01	13.4611	18.015718	0.000242	2.419475	0.819740	-0.000097
1328	6.6350e+01	13.4467	17.967273	0.000242	2.419475	0.819740	-0.000097
1329	6.6400e+01	13.4338	17.914790	0.000262	2.621098	0.888052	-0.000105
1330	6.6450e+01	13.4146	17.878456	0.000181	1.814606	0.614805	-0.000073
1331	6.6500e+01	13.3921	17.842121	0.000181	1.814606	0.614805	-0.000073
1332	6.6550e+01	13.3809	17.777527	0.000323	3.225966	1.092987	-0.000129
1333	6.6600e+01	13.3440	17.721007	0.000282	2.822720	0.956364	-0.000113
1334	6.6650e+01	13.3344	17.676599	0.000222	2.217852	0.751429	-0.000089
1335	6.6700e+01	13.3055	17.652376	0.000121	1.209737	0.409870	-0.000048
1336	6.6750e+01	13.2879	17.587782	0.000323	3.225966	1.092987	-0.000129
1337	6.6800e+01	13.2750	17.519151	0.000343	3.427589	1.161299	-0.000137
1338	6.6850e+01	13.2638	17.523188	-0.000020	-0.201623	-0.068312	0.000008
1339	6.6900e+01	13.2301	17.478779	0.000222	2.217852	0.751429	-0.000089
1340	6.6950e+01	13.2189	17.406111	0.000363	3.629212	1.229610	-0.000145
1341	6.7000e+01	13.1820	17.410148	-0.000020	-0.201623	-0.068312	0.000008
1342	6.7050e+01	13.1708	17.341517	0.000343	3.427589	1.161299	-0.000137
1343	6.7100e+01	13.1419	17.313257	0.000141	1.411360	0.478182	-0.000057
1344	6.7150e+01	13.1242	17.248662	0.000323	3.225966	1.092987	-0.000129
1345	6.7200e+01	13.1098	17.216365	0.000161	1.612983	0.546493	-0.000065
1346	6.7250e+01	13.1002	17.180031	0.000181	1.814606	0.614805	-0.000073
1347	6.7300e+01	13.0569	17.135623	0.000222	2.217852	0.751429	-0.000089
1348	6.7350e+01	13.0472	17.091214	0.000222	2.217852	0.751429	-0.000089
1349	6.7400e+01	13.0264	17.042769	0.000242	2.419475	0.819740	-0.000097
1350	6.7450e+01	13.0071	17.014509	0.000141	1.411360	0.478182	-0.000057
1351	6.7500e+01	12.9863	16.949914	0.000323	3.225966	1.092987	-0.000129
1352	6.7550e+01	12.9686	16.897432	0.000262	2.621098	0.888052	-0.000105
1353	6.7600e+01	12.9542	16.861097	0.000181	1.814606	0.614805	-0.000073
1354	6.7650e+01	12.9349	16.812652	0.000242	2.419475	0.819740	-0.000097
1355	6.7700e+01	12.9189	16.756132	0.000282	2.822720	0.956364	-0.000113
1356	6.7750e+01	12.9012	16.679426	0.000383	3.830835	1.297922	-0.000153
1357	6.7800e+01	12.8708	16.626944	0.000262	2.621098	0.888052	-0.000105
1358	6.7850e+01	12.8563	16.582535	0.000222	2.217852	0.751429	-0.000089
1359	6.7900e+01	12.8307	16.542164	0.000202	2.016229	0.683117	-0.000081
1360	6.7950e+01	12.8210	16.457384	0.000423	4.234081	1.434545	-0.000170
1361	6.8000e+01	12.7922	16.380678	0.000383	3.830835	1.297922	-0.000153
1362	6.8050e+01	12.7777	16.356455	0.000121	1.209737	0.409870	-0.000048
1363	6.8100e+01	12.7569	16.316084	0.000202	2.016229	0.683117	-0.000081
1364	6.8150e+01	12.7312	16.255527	0.000302	3.024343	1.024675	-0.000121
1365	6.8200e+01	12.7151	16.219193	0.000181	1.814606	0.614805	-0.000073
1366	6.8250e+01	12.6991	16.199007	0.000101	1.008114	0.341558	-0.000040
1367	6.8300e+01	12.6750	16.130376	0.000343	3.427589	1.161299	-0.000137
1368	6.8350e+01	12.6590	16.110190	0.000101	1.008114	0.341558	-0.000040
1369	6.8400e+01	12.6381	16.033485	0.000383	3.830835	1.297922	-0.000153
1370	6.8450e+01	12.6141	16.013299	0.000101	1.008114	0.341558	-0.000040
1371	6.8500e+01	12.5996	15.944668	0.000343	3.427589	1.161299	-0.000137
1372	6.8550e+01	12.5724	15.900259	0.000222	2.217852	0.751429	-0.000089
1373	6.8600e+01	12.5499	15.876036	0.000121	1.209737	0.409870	-0.000048
1374	6.8650e+01	12.5371	15.863925	0.000060	0.604869	0.204935	-0.000024
1375	6.8700e+01	12.5162	15.746848	0.000585	5.847064	1.981039	-0.000234
1376	6.8750e+01	12.4906	15.742811	0.000020	0.201623	0.068312	-0.000008
1377	6.8800e+01	12.4825	15.698402	0.000222	2.217852	0.751429	-0.000089
1378	6.8850e+01	12.4537	15.674180	0.000121	1.209737	0.409870	-0.000048
1379	6.8900e+01	12.4296	15.593437	0.000403	4.032458	1.366234	-0.000161
1380	6.8950e+01	12.4071	15.597474	-0.000020	-0.201623	-0.068312	0.000008
1381	6.9000e+01	12.3959	15.516731	0.000403	4.032458	1.366234	-0.000161
1382	6.9050e+01	12.3718	15.431951	0.000423	4.234081	1.434545	-0.000170
1383	6.9100e+01	12.3590	15.460211	-0.000141	-1.411360	-0.478182	0.000057
1384	6.9150e+01	12.3398	15.411766	0.000242	2.419475	0.819740	-0.000097
1385	6.9200e+01	12.3109	15.339097	0.000363	3.629212	1.229610	-0.000145
1386	6.9250e+01	12.2948	15.266429	0.000363	3.629212	1.229610	-0.000145
1387	6.9300e+01	12.2724	15.222020	0.000222	2.217852	0.751429	-0.000089
1388	6.9350e+01	12.2467	15.222020	-0.000000	-0.000000	-0.000000	0.000000
1389	6.9400e+01	12.2371	15.133203	0.000444	4.435703	1.502857	-0.000178
1390	6.9450e+01	12.2066	15.100906	0.000161	1.612983	0.546493	-0.000065
1391	6.9500e+01	12.2114	15.048423	-0.000262	-2.621098	-0.888052	-0.000105
1392	6.9550e+01	12.1793	15.004015	0.000222	2.217852	0.751429	-0.000089
1393	6.9600e+01	12.1473	14.939421	0.000323	3.225966	1.092987	-0.000129
1394	6.9650e+01	12.1344	14.878864	0.000302	3.024343	1.024675	-0.000121
1395	6.9700e+01	12.1200	14.826381	0.000262	2.621098	0.888052	-0.000105
1396	6.9750e+01	12.0863	14.753713	0.000363	3.629212	1.229610	-0.000145
1397	6.9800e+01	12.0831	14.713341	0.000202	2.016229	0.683117	-0.000081
1398	6.9850e+01	12.0558	14.648747	0.000323	3.225966	1.092987	-0.000129
1399	6.9900e+01	12.0382	14.632598	0.000081	0.806492	0.273247	-0.000032
1400	6.9950e+01	12.0141	14.551856	0.000403	4.032458	1.366234	-0.000161
1401	7.0000e+01	11.9900	14.487262	0.000323	3.225966	1.092987	-0.000129
1402	7.0050e+01	11.9740	14.454965	0.000161	1.612983	0.546493	-0.000065
1403	7.0100e+01	11.9547	14.386333	0.000343	3.427589	1.161299	-0.000137
1404	7.0150e+01	11.9387	14.354036	0.000161	1.612983	0.546493	-0.000065
1405	7.0200e+01	11.9146	14.301553	0.000262	2.621098	0.888052	-0.000105
1406	7.0250e+01	11.9034	14.257145	0.000222	2.217852	0.751429	-0.000089
1407	7.0300e+01	11.8601	14.212736	0.000222	2.217852	0.751429	-0.000089
1408	7.0350e+01	11.8505	14.164291	0.000242	2.419475	0.819740	-0.000097
1409	7.0400e+01	11.8328	14.131994	0.000161	1.612983	0.546493	-0.000065
1410	7.0450e+01	11.8136	14.095659	0.000181	1.814606	0.614805	-0.000073
1411	7.0500e+01	11.7991	14.083548	0.000060	0.604869	0.204935	-0.000024
1412	7.0550e+01	11.7703	14.031065	0.000262	2.621098	0.888052	-0.000105
1413	7.0600e+01	11.7494	14.002805	0.000141	1.411360	0.478182	-0.000057
1414	7.0650e+01	11.7366	13.938211	0.000323	3.225966	1.092987	-0.000129
1415	7.0700e+01	11.7141	13.865543	0.000363	3.629212	1.229610	-0.000145
1416	7.0750e+01	11.6933	13.817097	0.000242	2.419475	0.819740	-0.000097
1417	7.0800e+01	11.6708	13.772689	0.000222	2.217852	0.751429	-0.000089
1418	7.0850e+01	11.6628	13.732317	0.000202	2.016229	0.683117	-0.000081
1419	7.0900e+01	11.6323	13.695983	0.000181	1.814606	0.614805	-0.000073
1420	7.0950e+01	11.6098	13.611203	0.000423	4.234081	1.434545	-0.000170
1421	7.1000e+01	11.5938	13.554683	0.000282	2.822720	0.956364	-0.000113
1422	7.1050e+01	11.5761	13.542572	0.000060	0.604869	0.204935	-0.000024
1423	7.1100e+01	11.5489	13.449718	0.000464	4.637326	1.571169	-0.000186
1424	7.1150e+01	11.5360	13.457792	-0.000040	-0.403246	-0.136623	0.000016
1425	7.1200e+01	11.5104	13.360901	0.000484	4.838949	1.639480	-0.000194
1426	7.1250e+01	11.4911	13.364938	-0.000020	-0.201623	-0.068312	0.000008
1427	7.1300e+01	11.4735	13.284195	0.000403	4.032458	1.366234	-0.000161
1428	7.1350e+01	11.4622	13.215564	0.000343	3.427589	1.161299	-0.000137
1429	7.1400e+01	11.4382	13.159044	0.000282	2.822720	0.956364	-0.000113
1430	7.1450e+01	11.4157	13.098487	0.000302	3.024343	1.024675	-0.000121
1431	7.1500e+01	11.3917	13.029856	0.000343	3.427589	1.161299	-0.000137
1432	7.1550e+01	11.3772	12.920853	0.000544	5.443818	1.844415	-0.000218
1433	7.1600e+01	11.3532	12.876444	0.000222	2.217852	0.751429	-0.000089
1434	7.1650e+01	11.3371	12.836073	0.000202	2.016229	0.683117	-0.000081
1435	7.1700e+01	11.3130	12.775516	0.000302	3.024343	1.024675	-0.000121
1436	7.1750e+01	11.2858	12.743219	0.000161	1.612983	0.546493	-0.000065
1437	7.1800e+01	11.2729	12.658439	0.000423	4.234081	1.434545	-0.000170
1438	7.1850e+01	11.2537	12.662476	-0.000020	-0.201623	-0.068312	0.000008
1439	7.1900e+01	11.2425	12.585771	0.000383	3.830835	1.297922	-0.000153
1440	7.1950e+01	11.2184	12.517139	0.000343	3.427589	1.161299	-0.000137
1441	7.2000e+01	11.1943	12.488879	0.000141	1.411360	0.478182	-0.000057
1442	7.2050e+01	11.1735	12.468694	0.000101	1.008114	0.341558	-0.000040
1443	7.2100e+01	11.1526	12.408137	0.000302	3.024343	1.024675	-0.000121
1444	7.2150e+01	11.1334	12.351617	0.000282	2.822720	0.956364	-0.000113
1445	7.2200e+01	11.1141	12.363728	-0.000060	-0.604869	-0.204935	0.000024
1446	7.2250e+01	11.0933	12.274911	0.000444	4.435703	1.502857	-0.000178
1447	7.2300e+01	11.0692	12.254726	0.000101	1.008114	0.341558	-0.000040
1448	7.2350e+01	11.0451	12.165909	0.000444	4.435703	1.502857	-0.000178
1449	7.2400e+01	11.0451	12.129574	0.000181	1.814606	0.614805	-0.000073
1450	7.2450e+01	11.0098	12.085166	0.000222	2.217852	0.751429	-0.000089
1451	7.2500e+01	10.9890	12.052869	0.000161	1.612983	0.546493	-0.000065
1452	7.2550e+01	10.9746	12.016535	0.000181	1.814606	0.614805	-0.000073
1453	7.2600e+01	10.9505	11.911569	0.000524	5.242195	1.776104	-0.000210
1454	7.2650e+01	10.9345	11.887346	0.000121	1.209737	0.409870	-0.000048
1455	7.2700e+01	10.9136	11.855049	0.000161	1.612983	0.546493	-0.000065
1456	7.2750e+01	10.8992	11.774306	0.000403	4.032458	1.366234	-0.000161
1457	7.2800e+01	10.8703	11.762195	0.000060	0.604869	0.204935	-0.000024
1458	7.2850e+01	10.8478	11.685489	0.000383	3.830835	1.297922	-0.000153
1459	7.2900e+01	10.8382	11.653192	0.000161	1.612983	0.546493	-0.000065
1460	7.2950e+01	10.8109	11.580524	0.000363	3.629212	1.229610	-0.000145
1461	7.3000e+01	10.7949	11.552264	0.000141	1.411360	0.478182	-0.000057
1462	7.3050e+01	10.7804	11.491707	0.000302	3.024343	1.024675	-0.000121
1463	7.3100e+01	10.7419	11.435187	0.000282	2.822720	0.956364	-0.000113
1464	7.3150e+01	10.7339	11.419038	0.000081	0.806492	0.273247	-0.000032
1465	7.3200e+01	10.7291	11.326184	0.000464	4.637326	1.571169	-0.000186
1466	7.3250e+01	10.6954	11.289850	0.000181	1.814606	0.614805	-0.000073
1467	7.3300e+01	10.6746	11.245442	0.000222	2.217852	0.751429	-0.000089
1468	7.3350e+01	10.6601	11.221219	0.000121	1.209737	0.409870	-0.000048
1469	7.3400e+01	10.6296	11.136439	0.000423	4.234081	1.434545	-0.000170
1470	7.3450e+01	10.6104	11.063770	0.000363	3.629212	1.229610	-0.000145
1471	7.3500e+01	10.5976	11.023399	0.000202	2.016229	0.683117	-0.000081
1472	7.3550e+01	10.5655	10.966879	0.000282	2.822720	0.956364	-0.000113
1473	7.3600e+01	10.5559	10.930545	0.000181	1.814606	0.614805	-0.000073
1474	7.3650e+01	10.5366	10.841728	0.000444	4.435703	1.502857	-0.000178
1475	7.3700e+01	10.5141	10.781171	0.000302	3.024343	1.024675	-0.000121
1476	7.3750e+01	10.4981	10.728688	0.000262	2.621098	0.888052	-0.000105
1477	7.3800e+01	10.4805	10.732725	-0.000020	-0.201623	-0.068312	0.000008
1478	7.3850e+01	10.4500	10.635834	0.000484	4.838949	1.639480	-0.000194
1479	7.3900e+01	10.4307	10.595463	0.000202	2.016229	0.683117	-0.000081
1480	7.3950e+01	10.4163	10.538943	0.000282	2.822720	0.956364	-0.000113
1481	7.4000e+01	10.3986	10.454163	0.000423	4.234081	1.434545	-0.000170
1482	7.4050e+01	10.3746	10.389569	0.000323	3.225966	1.092987	-0.000129
1483	7.4100e+01	10.3569	10.377457	0.000060	0.604869	0.204935	-0.000024
1484	7.4150e+01	10.3361	10.329012	0.000242	2.419475	0.819740	-0.000097
1485	7.4200e+01	10.3168	10.288640	0.000202	2.016229	0.683117	-0.000081
1486	7.4250e+01	10.2992	10.215972	0.000363	3.629212	1.229610	-0.000145
1487	7.4300e+01	10.2799	10.215972	-0.000000	-0.000000	-0.000000	0.000000
1488	7.4350e+01	10.2494	10.127155	0.000444	4.435703	1.502857	-0.000178
1489	7.4400e+01	10.2334	10.046412	0.000403	4.032458	1.366234	-0.000161
1490	7.4450e+01	10.2013	10.046412	-0.000000	-0.000000	-0.000000	0.000000
1491	7.4500e+01	10.1933	9.953558	0.000464	4.637326	1.571169	-0.000186
1492	7.4550e+01	10.1676	9.929335	0.000121	1.209737	0.409870	-0.000048
1493	7.4600e+01	10.1500	9.832444	0.000484	4.838949	1.639480	-0.000194
1494	7.4650e+01	10.1291	9.808221	0.000121	1.209737	0.409870	-0.000048
1495	7.4700e+01	10.1227	9.743627	0.000323	3.225966	1.092987	-0.000129
1496	7.4750e+01	10.0986	9.650773	0.000464	4.637326	1.571169	-0.000186
1497	7.4800e+01	10.0682	9.646736	0.000020	0.201623	0.068312	-0.000008
1498	7.4850e+01	10.0521	9.561956	0.000423	4.234081	1.434545	-0.000170
1499	7.4900e+01	10.0361	9.529659	0.000161	1.612983	0.546493	-0.000065
1500	7.4950e+01	10.0072	9.497362	0.000161	1.612983	0.546493	-0.000065
1501	7.5000e+01	9.9944	9.436805	0.000302	3.024343	1.024675	-0.000121
1502	7.5050e+01	9.9655	9.376248	0.000302	3.024343	1.024675	-0.000121
1503	7.5100e+01	9.9543	9.307616	0.000343	3.427589	1.161299	-0.000137
1504	7.5150e+01	9.9398	9.251097	0.000282	2.822720	0.956364	-0.000113
1505	7.5200e+01	9.9045	9.194577	0.000282	2.822720	0.956364	-0.000113
1506	7.5250e+01	9.8901	9.162280	0.000161	1.612983	0.546493	-0.000065
1507	7.5300e+01	9.8692	9.093648	0.000343	3.427589	1.161299	-0.000137
1508	7.5350e+01	9.8564	9.057314	0.000181	1.814606	0.614805	-0.000073
1509	7.5400e+01	9.8259	9.012906	0.000222	2.217852	0.751429	-0.000089
1510	7.5450e+01	9.8131	8.960423	0.000262	2.621098	0.888052	-0.000105
1511	7.5500e+01	9.8003	8.847383	0.000565	5.645441	1.912727	-0.000226
1512	7.5550e+01	9.7682	8.847383	-0.000000	-0.000000	-0.000000	0.000000
1513	7.5600e+01	9.7521	8.807012	0.000202	2.016229	0.683117	-0.000081
1514	7.5650e+01	9.7377	8.726269	0.000403	4.032458	1.366234	-0.000161
1515	7.5700e+01	9.7104	8.685898	0.000202	2.016229	0.683117	-0.000081
1516	7.5750e+01	9.6992	8.609192	0.000383	3.830835	1.297922	-0.000153
1517	7.5800e+01	9.6687	8.589006	0.000101	1.008114	0.341558	-0.000040
1518	7.5850e+01	9.6591	8.500189	0.000444	4.435703	1.502857	-0.000178
1519	7.5900e+01	9.6382	8.484041	0.000081	0.806492	0.273247	-0.000032
1520	7.5950e+01	9.6094	8.395224	0.000444	4.435703	1.502857	-0.000178
1521	7.6000e+01	9.5917	8.330630	0.000323	3.225966	1.092987	-0.000129
1522	7.6050e+01	9.5741	8.282184	0.000242	2.419475	0.819740	-0.000097
1523	7.6100e+01	9.5644	8.257961	0.000121	1.209737	0.409870	-0.000048
1524	7.6150e+01	9.5372	8.185293	0.000363	3.629212	1.229610	-0.000145
1525	7.6200e+01	9.5131	8.136847	0.000242	2.419475	0.819740	-0.000097
1526	7.6250e+01	9.4938	8.064179	0.000363	3.629212	1.229610	-0.000145
1527	7.6300e+01	9.4730	8.011696	0.000262	2.621098	0.888052	-0.000105
1528	7.6350e+01	9.4586	7.947102	0.000323	3.225966	1.092987	-0.000129
1529	7.6400e+01	9.4313	7.886545	0.000302	3.024343	1.024675	-0.000121
1530	7.6450e+01	9.4201	7.850210	0.000181	1.814606	0.614805	-0.000073
1531	7.6500e+01	9.3944	7.813876	0.000181	1.814606	0.614805	-0.000073
1532	7.6550e+01	9.3687	7.777542	0.000181	1.814606	0.614805	-0.000073
1533	7.6600e+01	9.3495	7.664502	0.000565	5.645441	1.912727	-0.000226
1534	7.6650e+01	9.3302	7.628168	0.000181	1.814606	0.614805	-0.000073
1535	7.6700e+01	9.3094	7.547425	0.000403	4.032458	1.366234	-0.000161
1536	7.6750e+01	9.2917	7.543388	0.000020	0.201623	0.068312	-0.000008
1537	7.6800e+01	9.2709	7.454571	0.000444	4.435703	1.502857	-0.000178
1538	7.6850e+01	9.2564	7.418237	0.000181	1.814606	0.614805	-0.000073
1539	7.6900e+01	9.2292	7.394014	0.000121	1.209737	0.409870	-0.000048
1540	7.6950e+01	9.2275	7.293086	0.000504	5.040572	1.707792	-0.000202
1541	7.7000e+01	9.1955	7.285011	0.000040	0.403246	0.136623	-0.000016
1542	7.7050e+01	9.1618	7.204269	0.000403	4.032458	1.366234	-0.000161
1543	7.7100e+01	9.1570	7.159860	0.000222	2.217852	0.751429	-0.000089
1544	7.7150e+01	9.1297	7.123526	0.000181	1.814606	0.614805	-0.000073
1545	7.7200e+01	9.1153	7.083155	0.000202	2.016229	0.683117	-0.000081
1546	7.7250e+01	9.1024	7.026635	0.000282	2.822720	0.956364	-0.000113
1547	7.7300e+01	9.0751	6.949929	0.000383	3.830835	1.297922	-0.000153
1548	7.7350e+01	9.0463	6.893409	0.000282	2.822720	0.956364	-0.000113
1549	7.7400e+01	9.0399	6.828815	0.000323	3.225966	1.092987	-0.000129
1550	7.7450e+01	9.0190	6.748072	0.000403	4.032458	1.366234	-0.000161
1551	7.7500e+01	8.9933	6.707701	0.000202	2.016229	0.683117	-0.000081
1552	7.7550e+01	8.9741	6.639070	0.000343	3.427589	1.161299	-0.000137
1553	7.7600e+01	8.9612	6.594661	0.000222	2.217852	0.751429	-0.000089
1554	7.7650e+01	8.9436	6.521993	0.000363	3.629212	1.229610	-0.000145
1555	7.7700e+01	8.9147	6.457399	0.000323	3.225966	1.092987	-0.000129
1556	7.7750e+01	8.8923	6.417027	0.000202	2.016229	0.683117	-0.000081
1557	7.7800e+01	8.8746	6.376656	0.000202	2.016229	0.683117	-0.000081
1558	7.7850e+01	8.8586	6.320136	0.000282	2.822720	0.956364	-0.000113
1559	7.7900e+01	8.8297	6.235356	0.000423	4.234081	1.434545	-0.000170
1560	7.7950e+01	8.8169	6.158651	0.000383	3.830835	1.297922	-0.000153
1561	7.8000e+01	8.7880	6.138465	0.000101	1.008114	0.341558	-0.000040
1562	7.8050e+01	8.7719	6.061759	0.000383	3.830835	1.297922	-0.000153
1563	7.8100e+01	8.7511	6.009277	0.000262	2.621098	0.888052	-0.000105
1564	7.8150e+01	8.7286	5.981017	0.000141	1.411360	0.478182	-0.000057
1565	7.8200e+01	8.7158	5.884125	0.000484	4.838949	1.639480	-0.000194
1566	7.8250e+01	8.6885	5.859903	0.000121	1.209737	0.409870	-0.000048
1567	7.8300e+01	8.6661	5.799345	0.000302	3.024343	1.024675	-0.000121
1568	7.8350e+01	8.6564	5.750900	0.000242	2.419475	0.819740	-0.000097
1569	7.8400e+01	8.6292	5.674194	0.000383	3.830835	1.297922	-0.000153
1570	7.8450e+01	8.6131	5.629786	0.000222	2.217852	0.751429	-0.000089
1571	7.8500e+01	8.5907	5.561154	0.000343	3.427589	1.161299	-0.000137
1572	7.8550e+01	8.5762	5.516746	0.000222	2.217852	0.751429	-0.000089
1573	7.8600e+01	8.5522	5.440040	0.000383	3.830835	1.297922	-0.000153
1574	7.8650e+01	8.5361	5.363335	0.000383	3.830835	1.297922	-0.000153
1575	7.8700e+01	8.5089	5.339112	0.000121	1.209737	0.409870	-0.000048
1576	7.8750e+01	8.4976	5.278555	0.000302	3.024343	1.024675	-0.000121
1577	7.8800e+01	8.4671	5.226072	0.000262	2.621098	0.888052	-0.000105
1578	7.8850e+01	8.4495	5.177627	0.000242	2.419475	0.819740	-0.000097
1579	7.8900e+01	8.4335	5.113032	0.000323	3.225966	1.092987	-0.000129
1580	7.8950e+01	8.4110	5.080735	0.000161	1.612983	0.546493	-0.000065
1581	7.9000e+01	8.3901	5.040364	0.000202	2.016229	0.683117	-0.000081
1582	7.9050e+01	8.3773	4.951547	0.000444	4.435703	1.502857	-0.000178
1583	7.9100e+01	8.3500	4.911176	0.000202	2.016229	0.683117	-0.000081
1584	7.9150e+01	8.3324	4.846581	0.000323	3.225966	1.092987	-0.000129
1585	7.9200e+01	8.3147	4.822359	0.000121	1.209737	0.409870	-0.000048
1586	7.9250e+01	8.2907	4.745653	0.000383	3.830835	1.297922	-0.000153
1587	7.9300e+01	8.2746	4.681059	0.000323	3.225966	1.092987	-0.000129
1588	7.9350e+01	8.2634	4.620502	0.000302	3.024343	1.024675	-0.000121
1589	7.9400e+01	8.2361	4.515536	0.000524	5.242195	1.776104	-0.000210
1590	7.9450e+01	8.2057	4.519573	-0.000020	-0.201623	-0.068312	0.000008
1591	7.9500e+01	8.1944	4.366162	0.000766	7.661670	2.595844	-0.000307
1592	7.9550e+01	8.1688	4.350014	0.000081	0.806492	0.273247	-0.000032
1593	7.9600e+01	8.1495	4.313680	0.000181	1.814606	0.614805	-0.000073
1594	7.9650e+01	8.1383	4.253123	0.000302	3.024343	1.024675	-0.000121
1595	7.9700e+01	8.1142	4.196603	0.000282	2.822720	0.956364	-0.000113
1596	7.9750e+01	8.0934	4.140083	0.000282	2.822720	0.956364	-0.000113
1597	7.9800e+01	8.0725	4.071451	0.000343	3.427589	1.161299	-0.000137
1598	7.9850e+01	8.0452	4.027043	0.000222	2.217852	0.751429	-0.000089
1599	7.9900e+01	8.0356	3.914003	0.000565	5.645441	1.912727	-0.000226
1600	7.9950e+01	8.0228	3.897855	0.000081	0.806492	0.273247	-0.000032
1601	8.0000e+01	7.9811	3.837298	0.000302	3.024343	1.024675	-0.000121
1602	8.0050e+01	7.9730	3.813075	0.000121	1.209737	0.409870	-0.000048
1603	8.0100e+01	7.9570	3.704072	0.000544	5.443818	1.844415	-0.000218
1604	8.0150e+01	7.9361	3.675812	0.000141	1.411360	0.478182	-0.000057
1605	8.0200e+01	7.9153	3.599107	0.000383	3.830835	1.297922	-0.000153
1606	8.0250e+01	7.8928	3.550661	0.000242	2.419475	0.819740	-0.000097
1607	8.0300e+01	7.8704	3.461844	0.000444	4.435703	1.502857	-0.000178
1608	8.0350e+01	7.8447	3.393213	0.000343	3.427589	1.161299	-0.000137
1609	8.0400e+01	7.8271	3.368990	0.000121	1.209737	0.409870	-0.000048
1610	8.0450e+01	7.8126	3.280173	0.000444	4.435703	1.502857	-0.000178
1611	8.0500e+01	7.8062	3.223653	0.000282	2.822720	0.956364	-0.000113
1612	8.0550e+01	7.7661	3.171170	0.000262	2.621098	0.888052	-0.000105
1613	8.0600e+01	7.7500	3.134836	0.000181	1.814606	0.614805	-0.000073
1614	8.0650e+01	7.7404	3.110613	0.000121	1.209737	0.409870	-0.000048
1615	8.0700e+01	7.7067	3.090427	0.000101	1.008114	0.341558	-0.000040
1616	8.0750e+01	7.6859	2.985462	0.000524	5.242195	1.776104	-0.000210
1617	8.0800e+01	7.6763	2.973350	0.000060	0.604869	0.204935	-0.000024
1618	8.0850e+01	7.6474	2.876459	0.000484	4.838949	1.639480	-0.000194
1619	8.0900e+01	7.6361	2.832051	0.000222	2.217852	0.751429	-0.000089
1620	8.0950e+01	7.6137	2.783605	0.000242	2.419475	0.819740	-0.000097
1621	8.1000e+01	7.6009	2.686714	0.000484	4.838949	1.639480	-0.000194
1622	8.1050e+01	7.5720	2.622120	0.000323	3.225966	1.092987	-0.000129
1623	8.1100e+01	7.5559	2.541377	0.000403	4.032458	1.366234	-0.000161
1624	8.1150e+01	7.5351	2.525228	0.000081	0.806492	0.273247	-0.000032
1625	8.1200e+01	7.5206	2.400077	0.000625	6.250309	2.117662	-0.000250
1626	8.1250e+01	7.4966	2.359706	0.000202	2.016229	0.683117	-0.000081
1627	8.1300e+01	7.4805	2.307223	0.000262	2.621098	0.888052	-0.000105
1628	8.1350e+01	7.4533	2.250703	0.000282	2.822720	0.956364	-0.000113
1629	8.1400e+01	7.4388	2.178035	0.000363	3.629212	1.229610	-0.000145
1630	8.1450e+01	7.4100	2.069032	0.000544	5.443818	1.844415	-0.000218
1631	8.1500e+01	7.3955	2.036735	0.000161	1.612983	0.546493	-0.000065
1632	8.1550e+01	7.3763	2.016549	0.000101	1.008114	0.341558	-0.000040
1633	8.1600e+01	7.3586	1.927732	0.000444	4.435703	1.502857	-0.000178
1634	8.1650e+01	7.3362	1.875250	0.000262	2.621098	0.888052	-0.000105
1635	8.1700e+01	7.3169	1.794507	0.000403	4.032458	1.366234	-0.000161
1636	8.1750e+01	7.2928	1.750098	0.000222	2.217852	0.751429	-0.000089
1637	8.1800e+01	7.2720	1.693578	0.000282	2.822720	0.956364	-0.000113
1638	8.1850e+01	7.2527	1.612836	0.000403	4.032458	1.366234	-0.000161
1639	8.1900e+01	7.2319	1.548242	0.000323	3.225966	1.092987	-0.000129
1640	8.1950e+01	7.2142	1.495759	0.000262	2.621098	0.888052	-0.000105
1641	8.2000e+01	7.1918	1.455387	0.000202	2.016229	0.683117	-0.000081
1642	8.2050e+01	7.1773	1.362533	0.000464	4.637326	1.571169	-0.000186
1643	8.2100e+01	7.1517	1.293902	0.000343	3.427589	1.161299	-0.000137
1644	8.2150e+01	7.1420	1.209122	0.000423	4.234081	1.434545	-0.000170
1645	8.2200e+01	7.1116	1.184899	0.000121	1.209737	0.409870	-0.000048
1646	8.2250e+01	7.1003	1.148565	0.000181	1.814606	0.614805	-0.000073
1647	8.2300e+01	7.0666	1.067822	0.000403	4.032458	1.366234	-0.000161
1648	8.2350e+01	7.0474	1.019377	0.000242	2.419475	0.819740	-0.000097
1649	8.2400e+01	7.0378	0.942671	0.000383	3.830835	1.297922	-0.000153
1650	8.2450e+01	7.0105	0.906337	0.000181	1.814606	0.614805	-0.000073
1651	8.2500e+01	6.9993	0.853854	0.000262	2.621098	0.888052	-0.000105
1652	8.2550e+01	6.9720	0.849817	0.000020	0.201623	0.068312	-0.000008
1653	8.2600e+01	6.9576	0.744852	0.000524	5.242195	1.776104	-0.000210
1654	8.2650e+01	6.9351	0.688332	0.000282	2.822720	0.956364	-0.000113
1655	8.2700e+01	6.9110	0.627775	0.000302	3.024343	1.024675	-0.000121
1656	8.2750e+01	6.8982	0.571255	0.000282	2.822720	0.956364	-0.000113
1657	8.2800e+01	6.8741	0.498586	0.000363	3.629212	1.229610	-0.000145
1658	8.2850e+01	6.8485	0.425918	0.000363	3.629212	1.229610	-0.000145
1659	8.2900e+01	6.8372	0.385546	0.000202	2.016229	0.683117	-0.000081
1660	8.2950e+01	6.8116	0.320952	0.000323	3.225966	1.092987	-0.000129
1661	8.3000e+01	6.7971	0.232135	0.000444	4.435703	1.502857	-0.000178
1662	8.3050e+01	6.7763	0.151393	0.000403	4.032458	1.366234	-0.000161
1663	8.3100e+01	6.7474	0.090836	0.000302	3.024343	1.024675	-0.000121
1664	8.3150e+01	6.7330	0.026241	0.000323	3.225966	1.092987	-0.000129
1665	8.3200e+01	6.7089	-0.026241	0.000262	2.621098	0.888052	-0.000105
1666	8.3250e+01	6.6977	-0.062576	0.000181	1.814606	0.614805	-0.000073
1667	8.3300e+01	6.6720	-0.167541	0.000524	5.242195	1.776104	-0.000210
1668	8.3350e+01	6.6544	-0.232135	0.000323	3.225966	1.092987	-0.000129
1669	8.3400e+01	6.6415	-0.296729	0.000323	3.225966	1.092987	-0.000129
1670	8.3450e+01	6.6126	-0.345175	0.000242	2.419475	0.819740	-0.000097
1671	8.3500e+01	6.5998	-0.405732	0.000302	3.024343	1.024675	-0.000121
1672	8.3550e+01	6.5806	-0.510698	0.000524	5.242195	1.776104	-0.000210
1673	8.3600e+01	6.5581	-0.526846	0.000081	0.806492	0.273247	-0.000032
1674	8.3650e+01	6.5308	-0.603552	0.000383	3.830835	1.297922	-0.000153
1675	8.3700e+01	6.5084	-0.631812	0.000141	1.411360	0.478182	-0.000057
1676	8.3750e+01	6.4859	-0.732740	0.000504	5.040572	1.707792	-0.000202
1677	8.3800e+01	6.4763	-0.752926	0.000101	1.008114	0.341558	-0.000040
1678	8.3850e+01	6.4618	-0.849817	0.000484	4.838949	1.639480	-0.000194
1679	8.3900e+01	6.4378	-0.898263	0.000242	2.419475	0.819740	-0.000097
1680	8.3950e+01	6.4089	-0.946708	0.000242	2.419475	0.819740	-0.000097
1681	8.4000e+01	6.3897	-1.047637	0.000504	5.040572	1.707792	-0.000202
1682	8.4050e+01	6.3800	-1.063785	0.000081	0.806492	0.273247	-0.000032
1683	8.4100e+01	6.3560	-1.136454	0.000363	3.629212	1.229610	-0.000145
1684	8.4150e+01	6.3287	-1.172788	0.000181	1.814606	0.614805	-0.000073
1685	8.4200e+01	6.3111	-1.245456	0.000363	3.629212	1.229610	-0.000145
1686	8.4250e+01	6.2918	-1.318125	0.000363	3.629212	1.229610	-0.000145
1687	8.4300e+01	6.2774	-1.362533	0.000222	2.217852	0.751429	-0.000089
1688	8.4350e+01	6.2517	-1.443276	0.000403	4.032458	1.366234	-0.000161
1689	8.4400e+01	6.2340	-1.431165	-0.000060	-0.604869	-0.204935	0.000024
1690	8.4450e+01	6.2180	-1.540167	0.000544	5.443818	1.844415	-0.000218
1691	8.4500e+01	6.1988	-1.620910	0.000403	4.032458	1.366234	-0.000161
1692	8.4550e+01	6.1779	-1.693578	0.000363	3.629212	1.229610	-0.000145
1693	8.4600e+01	6.1442	-1.733950	0.000202	2.016229	0.683117	-0.000081
1694	8.4650e+01	6.1362	-1.790470	0.000282	2.822720	0.956364	-0.000113
1695	8.4700e+01	6.1153	-1.887361	0.000484	4.838949	1.639480	-0.000194
1696	8.4750e+01	6.0977	-1.947918	0.000302	3.024343	1.024675	-0.000121
1697	8.4800e+01	6.0720	-2.064995	0.000585	5.847064	1.981039	-0.000234
1698	8.4850e+01	6.0576	-2.125552	0.000302	3.024343	1.024675	-0.000121
1699	8.4900e+01	6.0351	-2.178035	0.000262	2.621098	0.888052	-0.000105
1700	8.4950e+01	6.0111	-2.246666	0.000343	3.427589	1.161299	-0.000137
1701	8.5000e+01	5.9934	-2.323372	0.000383	3.830835	1.297922	-0.000153
1702	8.5050e+01	5.9726	-2.379892	0.000282	2.822720	0.956364	-0.000113
1703	8.5100e+01	5.9613	-2.416226	0.000181	1.814606	0.614805	-0.000073
1704	8.5150e+01	5.9308	-2.472746	0.000282	2.822720	0.956364	-0.000113
1705	8.5200e+01	5.9148	-2.577711	0.000524	5.242195	1.776104	-0.000210
1706	8.5250e+01	5.8956	-2.626157	0.000242	2.419475	0.819740	-0.000097
1707	8.5300e+01	5.8731	-2.646342	0.000101	1.008114	0.341558	-0.000040
1708	8.5350e+01	5.8587	-2.710937	0.000323	3.225966	1.092987	-0.000129
1709	8.5400e+01	5.8346	-2.815902	0.000524	5.242195	1.776104	-0.000210
1710	8.5450e+01	5.8153	-2.848199	0.000161	1.612983	0.546493	-0.000065
1711	8.5500e+01	5.7817	-2.957202	0.000544	5.443818	1.844415	-0.000218
1712	8.5550e+01	5.7736	-3.037945	0.000403	4.032458	1.366234	-0.000161
1713	8.5600e+01	5.7496	-3.074279	0.000181	1.814606	0.614805	-0.000073
1714	8.5650e+01	5.7432	-3.110613	0.000181	1.814606	0.614805	-0.000073
1715	8.5700e+01	5.7127	-3.207504	0.000484	4.838949	1.639480	-0.000194
1716	8.5750e+01	5.6998	-3.243839	0.000181	1.814606	0.614805	-0.000073
1717	8.5800e+01	5.6694	-3.332656	0.000444	4.435703	1.502857	-0.000178
1718	8.5850e+01	5.6517	-3.356878	0.000121	1.209737	0.409870	-0.000048
1719	8.5900e+01	5.6276	-3.425510	0.000343	3.427589	1.161299	-0.000137
1720	8.5950e+01	5.6212	-3.498178	0.000363	3.629212	1.229610	-0.000145
1721	8.6000e+01	5.6020	-3.522401	0.000121	1.209737	0.409870	-0.000048
1722	8.6050e+01	5.5779	-3.615255	0.000464	4.637326	1.571169	-0.000186
1723	8.6100e+01	5.5474	-3.695998	0.000403	4.032458	1.366234	-0.000161
1724	8.6150e+01	5.5378	-3.768666	0.000363	3.629212	1.229610	-0.000145
1725	8.6200e+01	5.5105	-3.817112	0.000242	2.419475	0.819740	-0.000097
1726	8.6250e+01	5.4993	-3.833260	0.000081	0.806492	0.273247	-0.000032
1727	8.6300e+01	5.4769	-3.950337	0.000585	5.847064	1.981039	-0.000234
1728	8.6350e+01	5.4544	-4.031080	0.000403	4.032458	1.366234	-0.000161
1729	8.6400e+01	5.4303	-4.119897	0.000444	4.435703	1.502857	-0.000178
1730	8.6450e+01	5.4175	-4.156231	0.000181	1.814606	0.614805	-0.000073
1731	8.6500e+01	5.4015	-4.249085	0.000464	4.637326	1.571169	-0.000186
1732	8.6550e+01	5.3726	-4.345977	0.000484	4.838949	1.639480	-0.000194
1733	8.6600e+01	5.3437	-4.378274	0.000161	1.612983	0.546493	-0.000065
1734	8.6650e+01	5.3309	-4.442868	0.000323	3.225966	1.092987	-0.000129
1735	8.6700e+01	5.3132	-4.523611	0.000403	4.032458	1.366234	-0.000161
1736	8.6750e+01	5.2940	-4.592242	0.000343	3.427589	1.161299	-0.000137
1737	8.6800e+01	5.2715	-4.677022	0.000423	4.234081	1.434545	-0.000170
1738	8.6850e+01	5.2603	-4.717393	0.000202	2.016229	0.683117	-0.000081
1739	8.6900e+01	5.2282	-4.749690	0.000161	1.612983	0.546493	-0.000065
1740	8.6950e+01	5.2234	-4.846581	0.000484	4.838949	1.639480	-0.000194
1741	8.7000e+01	5.2009	-4.895027	0.000242	2.419475	0.819740	-0.000097
1742	8.7050e+01	5.1704	-4.979807	0.000423	4.234081	1.434545	-0.000170
1743	8.7100e+01	5.1512	-5.056513	0.000383	3.830835	1.297922	-0.000153
1744	8.7150e+01	5.1351	-5.125144	0.000343	3.427589	1.161299	-0.000137
1745	8.7200e+01	5.1111	-5.173589	0.000242	2.419475	0.819740	-0.000097
1746	8.7250e+01	5.0983	-5.270481	0.000484	4.838949	1.639480	-0.000194
1747	8.7300e+01	5.0790	-5.322963	0.000262	2.621098	0.888052	-0.000105
1748	8.7350e+01	5.0501	-5.363335	0.000202	2.016229	0.683117	-0.000081
1749	8.7400e+01	5.0325	-5.464263	0.000504	5.040572	1.707792	-0.000202
1750	8.7450e+01	5.0116	-5.468300	0.000020	0.201623	0.068312	-0.000008
1751	8.7500e+01	4.9988	-5.540969	0.000363	3.629212	1.229610	-0.000145
1752	8.7550e+01	4.9795	-5.581340	0.000202	2.016229	0.683117	-0.000081
1753	8.7600e+01	4.9507	-5.674194	0.000464	4.637326	1.571169	-0.000186
1754	8.7650e+01	4.9314	-5.706491	0.000161	1.612983	0.546493	-0.000065
1755	8.7700e+01	4.9218	-5.779160	0.000363	3.629212	1.229610	-0.000145
1756	8.7750e+01	4.8977	-5.863940	0.000423	4.234081	1.434545	-0.000170
1757	8.7800e+01	4.8721	-5.916422	0.000262	2.621098	0.888052	-0.000105
1758	8.7850e+01	4.8528	-5.981017	0.000323	3.225966	1.092987	-0.000129
1759	8.7900e+01	4.8319	-6.077908	0.000484	4.838949	1.639480	-0.000194
1760	8.7950e+01	4.8175	-6.134428	0.000282	2.822720	0.956364	-0.000113
1761	8.8000e+01	4.7934	-6.219208	0.000423	4.234081	1.434545	-0.000170
1762	8.8050e+01	4.7694	-6.247468	0.000141	1.411360	0.478182	-0.000057
1763	8.8100e+01	4.7549	-6.356470	0.000544	5.443818	1.844415	-0.000218
1764	8.8150e+01	4.7325	-6.404916	0.000242	2.419475	0.819740	-0.000097
1765	8.8200e+01	4.7116	-6.493733	0.000444	4.435703	1.502857	-0.000178
1766	8.8250e+01	4.6956	-6.554290	0.000302	3.024343	1.024675	-0.000121
1767	8.8300e+01	4.6779	-6.667330	0.000565	5.645441	1.912727	-0.000226
1768	8.8350e+01	4.6571	-6.735961	0.000343	3.427589	1.161299	-0.000137
1769	8.8400e+01	4.6394	-6.808629	0.000363	3.629212	1.229610	-0.000145
1770	8.8450e+01	4.6122	-6.889372	0.000403	4.032458	1.366234	-0.000161
1771	8.8500e+01	4.5881	-6.945892	0.000282	2.822720	0.956364	-0.000113
1772	8.8550e+01	4.5737	-7.022598	0.000383	3.830835	1.297922	-0.000153
1773	8.8600e+01	4.5560	-7.062969	0.000202	2.016229	0.683117	-0.000081
1774	8.8650e+01	4.5384	-7.151786	0.000444	4.435703	1.502857	-0.000178
1775	8.8700e+01	4.5095	-7.212343	0.000302	3.024343	1.024675	-0.000121
1776	8.8750e+01	4.5015	-7.280974	0.000343	3.427589	1.161299	-0.000137
1777	8.8800e+01	4.4790	-7.373828	0.000464	4.637326	1.571169	-0.000186
1778	8.8850e+01	4.4517	-7.458608	0.000423	4.234081	1.434545	-0.000170
1779	8.8900e+01	4.4309	-7.515128	0.000282	2.822720	0.956364	-0.000113
1780	8.8950e+01	4.4229	-7.559537	0.000222	2.217852	0.751429	-0.000089
1781	8.9000e+01	4.3972	-7.624131	0.000323	3.225966	1.092987	-0.000129
1782	8.9050e+01	4.3731	-7.700836	0.000383	3.830835	1.297922	-0.000153
1783	8.9100e+01	4.3523	-7.757356	0.000282	2.822720	0.956364	-0.000113
1784	8.9150e+01	4.3298	-7.821950	0.000323	3.225966	1.092987	-0.000129
1785	8.9200e+01	4.3090	-7.850210	0.000141	1.411360	0.478182	-0.000057
1786	8.9250e+01	4.2993	-7.898656	0.000242	2.419475	0.819740	-0.000097
1787	8.9300e+01	4.2721	-7.987473	0.000444	4.435703	1.502857	-0.000178
1788	8.9350e+01	4.2528	-8.080327	0.000464	4.637326	1.571169	-0.000186
1789	8.9400e+01	4.2352	-8.108587	0.000141	1.411360	0.478182	-0.000057
1790	8.9450e+01	4.2127	-8.177218	0.000343	3.427589	1.161299	-0.000137
1791	8.9500e+01	4.1822	-8.261998	0.000423	4.234081	1.434545	-0.000170
1792	8.9550e+01	4.1774	-8.318518	0.000282	2.822720	0.956364	-0.000113
1793	8.9600e+01	4.1550	-8.383112	0.000323	3.225966	1.092987	-0.000129
1794	8.9650e+01	4.1309	-8.459818	0.000383	3.830835	1.297922	-0.000153
1795	8.9700e+01	4.1165	-8.500189	0.000202	2.016229	0.683117	-0.000081
1796	8.9750e+01	4.0924	-8.597081	0.000484	4.838949	1.639480	-0.000194
1797	8.9800e+01	4.0731	-8.653600	0.000282	2.822720	0.956364	-0.000113
1798	8.9850e+01	4.0619	-8.738380	0.000423	4.234081	1.434545	-0.000170
1799	8.9900e+01	4.0282	-8.794900	0.000282	2.822720	0.956364	-0.000113
1800	8.9950e+01	4.0218	-8.875643	0.000403	4.032458	1.366234	-0.000161
1801	9.0000e+01	4.0010	-8.916014	0.000202	2.016229	0.683117	-0.000081
1802	9.0050e+01	3.9833	-9.033091	0.000585	5.847064	1.981039	-0.000234
1803	9.0100e+01	3.9625	-9.089611	0.000282	2.822720	0.956364	-0.000113
1804	9.0150e+01	3.9416	-9.194577	0.000524	5.242195	1.776104	-0.000210
1805	9.0200e+01	3.9143	-9.275319	0.000403	4.032458	1.366234	-0.000161
1806	9.0250e+01	3.8903	-9.307616	0.000161	1.612983	0.546493	-0.000065
1807	9.0300e+01	3.8742	-9.432768	0.000625	6.250309	2.117662	-0.000250
1808	9.0350e+01	3.8502	-9.461028	0.000141	1.411360	0.478182	-0.000057
1809	9.0400e+01	3.8373	-9.570030	0.000544	5.443818	1.844415	-0.000218
1810	9.0450e+01	3.8165	-9.638662	0.000343	3.427589	1.161299	-0.000137
1811	9.0500e+01	3.8068	-9.715367	0.000383	3.830835	1.297922	-0.000153
1812	9.0550e+01	3.7828	-9.792073	0.000383	3.830835	1.297922	-0.000153
1813	9.0600e+01	3.7523	-9.840518	0.000242	2.419475	0.819740	-0.000097
1814	9.0650e+01	3.7379	-9.929335	0.000444	4.435703	1.502857	-0.000178
1815	9.0700e+01	3.7202	-9.989892	0.000302	3.024343	1.024675	-0.000121
1816	9.0750e+01	3.6978	-10.050449	0.000302	3.024343	1.024675	-0.000121
1817	9.0800e+01	3.6721	-10.151378	0.000504	5.040572	1.707792	-0.000202
1818	9.0850e+01	3.6577	-10.179638	0.000141	1.411360	0.478182	-0.000057
1819	9.0900e+01	3.6336	-10.272492	0.000464	4.637326	1.571169	-0.000186
1820	9.0950e+01	3.6208	-10.341123	0.000343	3.427589	1.161299	-0.000137
1821	9.1000e+01	3.5999	-10.397643	0.000282	2.822720	0.956364	-0.000113
1822	9.1050e+01	3.5839	-10.429940	0.000161	1.612983	0.546493	-0.000065
1823	9.1100e+01	3.5614	-10.486460	0.000282	2.822720	0.956364	-0.000113
1824	9.1150e+01	3.5341	-10.611611	0.000625	6.250309	2.117662	-0.000250
1825	9.1200e+01	3.5133	-10.651983	0.000202	2.016229	0.683117	-0.000081
1826	9.1250e+01	3.4972	-10.684280	0.000161	1.612983	0.546493	-0.000065
1827	9.1300e+01	3.4748	-10.789245	0.000524	5.242195	1.776104	-0.000210
1828	9.1350e+01	3.4523	-10.849802	0.000302	3.024343	1.024675	-0.000121
1829	9.1400e+01	3.4298	-10.910359	0.000302	3.024343	1.024675	-0.000121
1830	9.1450e+01	3.4090	-10.991102	0.000403	4.032458	1.366234	-0.000161
1831	9.1500e+01	3.3930	-11.051659	0.000302	3.024343	1.024675	-0.000121
1832	9.1550e+01	3.3785	-11.148550	0.000484	4.838949	1.639480	-0.000194
1833	9.1600e+01	3.3561	-11.192959	0.000222	2.217852	0.751429	-0.000089
1834	9.1650e+01	3.3368	-11.269664	0.000383	3.830835	1.297922	-0.000153
1835	9.1700e+01	3.3192	-11.354444	0.000423	4.234081	1.434545	-0.000170
1836	9.1750e+01	3.2983	-11.398853	0.000222	2.217852	0.751429	-0.000089
1837	9.1800e+01	3.2742	-11.455373	0.000282	2.822720	0.956364	-0.000113
1838	9.1850e+01	3.2614	-11.556301	0.000504	5.040572	1.707792	-0.000202
1839	9.1900e+01	3.2373	-11.657229	0.000504	5.040572	1.707792	-0.000202
1840	9.1950e+01	3.2181	-11.742009	0.000423	4.234081	1.434545	-0.000170
1841	9.2000e+01	3.1940	-11.818715	0.000383	3.830835	1.297922	-0.000153
1842	9.2050e+01	3.1796	-11.891383	0.000363	3.629212	1.229610	-0.000145
1843	9.2100e+01	3.1507	-11.939829	0.000242	2.419475	0.819740	-0.000097
1844	9.2150e+01	3.1347	-12.060943	0.000605	6.048687	2.049350	-0.000242
1845	9.2200e+01	3.1154	-12.165909	0.000524	5.242195	1.776104	-0.000210
1846	9.2250e+01	3.0978	-12.202243	0.000181	1.814606	0.614805	-0.000073
1847	9.2300e+01	3.0769	-12.254726	0.000262	2.621098	0.888052	-0.000105
1848	9.2350e+01	3.0609	-12.363728	0.000544	5.443818	1.844415	-0.000218
1849	9.2400e+01	3.0400	-12.391988	0.000141	1.411360	0.478182	-0.000057
1850	9.2450e+01	3.0144	-12.517139	0.000625	6.250309	2.117662	-0.000250
1851	9.2500e+01	2.9999	-12.561548	0.000222	2.217852	0.751429	-0.000089
1852	9.2550e+01	2.9823	-12.609993	0.000242	2.419475	0.819740	-0.000097
1853	9.2600e+01	2.9646	-12.727070	0.000585	5.847064	1.981039	-0.000234
1854	9.2650e+01	2.9325	-12.767442	0.000202	2.016229	0.683117	-0.000081
1855	9.2700e+01	2.9149	-12.864333	0.000484	4.838949	1.639480	-0.000194
1856	9.2750e+01	2.9053	-12.908742	0.000222	2.217852	0.751429	-0.000089
1857	9.2800e+01	2.8812	-12.953150	0.000222	2.217852	0.751429	-0.000089
1858	9.2850e+01	2.8555	-13.066190	0.000565	5.645441	1.912727	-0.000226
1859	9.2900e+01	2.8347	-13.046004	-0.000101	-1.008114	-0.341558	0.000040
1860	9.2950e+01	2.8202	-13.167118	0.000605	6.048687	2.049350	-0.000242
1861	9.3000e+01	2.8010	-13.219601	0.000262	2.621098	0.888052	-0.000105
1862	9.3050e+01	2.7737	-13.332641	0.000565	5.645441	1.912727	-0.000226
1863	9.3100e+01	2.7625	-13.360901	0.000141	1.411360	0.478182	-0.000057
1864	9.3150e+01	2.7224	-13.457792	0.000484	4.838949	1.639480	-0.000194
1865	9.3200e+01	2.7047	-13.522386	0.000323	3.225966	1.092987	-0.000129
1866	9.3250e+01	2.6871	-13.558720	0.000181	1.814606	0.614805	-0.000073
1867	9.3300e+01	2.6823	-13.659649	0.000504	5.040572	1.707792	-0.000202
1868	9.3350e+01	2.6518	-13.764614	0.000524	5.242195	1.776104	-0.000210
1869	9.3400e+01	2.6342	-13.825171	0.000302	3.024343	1.024675	-0.000121
1870	9.3450e+01	2.6069	-13.897840	0.000363	3.629212	1.229610	-0.000145
1871	9.3500e+01	2.5924	-13.970508	0.000363	3.629212	1.229610	-0.000145
1872	9.3550e+01	2.5780	-14.014917	0.000222	2.217852	0.751429	-0.000089
1873	9.3600e+01	2.5539	-14.111808	0.000484	4.838949	1.639480	-0.000194
1874	9.3650e+01	2.5315	-14.152179	0.000202	2.016229	0.683117	-0.000081
1875	9.3700e+01	2.5138	-14.240996	0.000444	4.435703	1.502857	-0.000178
1876	9.3750e+01	2.4962	-14.354036	0.000565	5.645441	1.912727	-0.000226
1877	9.3800e+01	2.4737	-14.430742	0.000383	3.830835	1.297922	-0.000153
1878	9.3850e+01	2.4593	-14.515522	0.000423	4.234081	1.434545	-0.000170
1879	9.3900e+01	2.4481	-14.543781	0.000141	1.411360	0.478182	-0.000057
1880	9.3950e+01	2.4192	-14.677007	0.000665	6.653555	2.254286	-0.000266
1881	9.4000e+01	2.4015	-14.790047	0.000565	5.645441	1.912727	-0.000226
1882	9.4050e+01	2.3823	-14.806195	0.000081	0.806492	0.273247	-0.000032
1883	9.4100e+01	2.3566	-14.911161	0.000524	5.242195	1.776104	-0.000210
1884	9.4150e+01	2.3310	-14.987866	0.000383	3.830835	1.297922	-0.000153
1885	9.4200e+01	2.3181	-15.068609	0.000403	4.032458	1.366234	-0.000161
1886	9.4250e+01	2.2957	-15.137240	0.000343	3.427589	1.161299	-0.000137
1887	9.4300e+01	2.2684	-15.193760	0.000282	2.822720	0.956364	-0.000113
1888	9.4350e+01	2.2572	-15.262392	0.000343	3.427589	1.161299	-0.000137
1889	9.4400e+01	2.2379	-15.355246	0.000464	4.637326	1.571169	-0.000186
1890	9.4450e+01	2.2154	-15.444063	0.000444	4.435703	1.502857	-0.000178
1891	9.4500e+01	2.2010	-15.488471	0.000222	2.217852	0.751429	-0.000089
1892	9.4550e+01	2.1866	-15.557103	0.000343	3.427589	1.161299	-0.000137
1893	9.4600e+01	2.1513	-15.641882	0.000423	4.234081	1.434545	-0.000170
1894	9.4650e+01	2.1288	-15.714551	0.000363	3.629212	1.229610	-0.000145
1895	9.4700e+01	2.1176	-15.754922	0.000202	2.016229	0.683117	-0.000081
1896	9.4750e+01	2.1096	-15.839702	0.000423	4.234081	1.434545	-0.000170
1897	9.4800e+01	2.0663	-15.876036	0.000181	1.814606	0.614805	-0.000073
1898	9.4850e+01	2.0566	-15.972928	0.000484	4.838949	1.639480	-0.000194
1899	9.4900e+01	2.0390	-16.021373	0.000242	2.419475	0.819740	-0.000097
1900	9.4950e+01	2.0149	-16.150562	0.000645	6.451932	2.185974	-0.000258
1901	9.5000e+01	1.9973	-16.186896	0.000181	1.814606	0.614805	-0.000073
1902	9.5050e+01	1.9780	-16.275713	0.000444	4.435703	1.502857	-0.000178
1903	9.5100e+01	1.9475	-16.336270	0.000302	3.024343	1.024675	-0.000121
1904	9.5150e+01	1.9379	-16.445272	0.000544	5.443818	1.844415	-0.000218
1905	9.5200e+01	1.9155	-16.457384	0.000060	0.604869	0.204935	-0.000024
1906	9.5250e+01	1.8994	-16.542164	0.000423	4.234081	1.434545	-0.000170
1907	9.5300e+01	1.8737	-16.614832	0.000363	3.629212	1.229610	-0.000145
1908	9.5350e+01	1.8497	-16.727872	0.000565	5.645441	1.912727	-0.000226
1909	9.5400e+01	1.8368	-16.788429	0.000302	3.024343	1.024675	-0.000121
1910	9.5450e+01	1.8080	-16.844949	0.000282	2.822720	0.956364	-0.000113
1911	9.5500e+01	1.7935	-16.953952	0.000544	5.443818	1.844415	-0.000218
1912	9.5550e+01	1.7727	-17.042769	0.000444	4.435703	1.502857	-0.000178
1913	9.5600e+01	1.7470	-17.095251	0.000262	2.621098	0.888052	-0.000105
1914	9.5650e+01	1.7374	-17.212328	0.000585	5.847064	1.981039	-0.000234
1915	9.5700e+01	1.7133	-17.244625	0.000161	1.612983	0.546493	-0.000065
1916	9.5750e+01	1.6989	-17.365739	0.000605	6.048687	2.049350	-0.000242
1917	9.5800e+01	1.6716	-17.365739	-0.000000	-0.000000	-0.000000	0.000000
1918	9.5850e+01	1.6524	-17.507039	0.000706	7.056801	2.390909	-0.000283
1919	9.5900e+01	1.6315	-17.567596	0.000302	3.024343	1.024675	-0.000121
1920	9.5950e+01	1.6090	-17.607968	0.000202	2.016229	0.683117	-0.000081
1921	9.6000e+01	1.6026	-17.672562	0.000323	3.225966	1.092987	-0.000129
1922	9.6050e+01	1.5738	-17.773490	0.000504	5.040572	1.707792	-0.000202
1923	9.6100e+01	1.5561	-17.894604	0.000605	6.048687	2.049350	-0.000242
1924	9.6150e+01	1.5417	-17.947087	0.000262	2.621098	0.888052	-0.000105
1925	9.6200e+01	1.5176	-18.056090	0.000544	5.443818	1.844415	-0.000218
1926	9.6250e+01	1.4967	-18.144907	0.000444	4.435703	1.502857	-0.000178
1927	9.6300e+01	1.4791	-18.193352	0.000242	2.419475	0.819740	-0.000097
1928	9.6350e+01	1.4599	-18.286206	0.000464	4.637326	1.571169	-0.000186
1929	9.6400e+01	1.4294	-18.338689	0.000262	2.621098	0.888052	-0.000105
1930	9.6450e+01	1.4197	-18.431543	0.000464	4.637326	1.571169	-0.000186
1931	9.6500e+01	1.3957	-18.484026	0.000262	2.621098	0.888052	-0.000105
1932	9.6550e+01	1.3845	-18.544583	0.000302	3.024343	1.024675	-0.000121
1933	9.6600e+01	1.3476	-18.613214	0.000343	3.427589	1.161299	-0.000137
1934	9.6650e+01	1.3395	-18.693957	0.000403	4.032458	1.366234	-0.000161
1935	9.6700e+01	1.3139	-18.766625	0.000363	3.629212	1.229610	-0.000145
1936	9.6750e+01	1.2930	-18.855442	0.000444	4.435703	1.502857	-0.000178
1937	9.6800e+01	1.2722	-18.944259	0.000444	4.435703	1.502857	-0.000178
1938	9.6850e+01	1.2497	-19.029039	0.000423	4.234081	1.434545	-0.000170
1939	9.6900e+01	1.2353	-19.097671	0.000343	3.427589	1.161299	-0.000137
1940	9.6950e+01	1.2240	-19.134005	0.000181	1.814606	0.614805	-0.000073
1941	9.7000e+01	1.1952	-19.259156	0.000625	6.250309	2.117662	-0.000250
1942	9.7050e+01	1.1759	-19.343936	0.000423	4.234081	1.434545	-0.000170
1943	9.7100e+01	1.1534	-19.412567	0.000343	3.427589	1.161299	-0.000137
1944	9.7150e+01	1.1374	-19.477161	0.000323	3.225966	1.092987	-0.000129
1945	9.7200e+01	1.1101	-19.582127	0.000524	5.242195	1.776104	-0.000210
1946	9.7250e+01	1.0909	-19.646721	0.000323	3.225966	1.092987	-0.000129
1947	9.7300e+01	1.0796	-19.735538	0.000444	4.435703	1.502857	-0.000178
1948	9.7350e+01	1.0572	-19.796095	0.000302	3.024343	1.024675	-0.000121
1949	9.7400e+01	1.0283	-19.852615	0.000282	2.822720	0.956364	-0.000113
1950	9.7450e+01	1.0155	-19.945469	0.000464	4.637326	1.571169	-0.000186
1951	9.7500e+01	0.9898	-20.022175	0.000383	3.830835	1.297922	-0.000153
1952	9.7550e+01	0.9706	-20.086769	0.000323	3.225966	1.092987	-0.000129
1953	9.7600e+01	0.9417	-20.159437	0.000363	3.629212	1.229610	-0.000145
1954	9.7650e+01	0.9289	-20.244217	0.000423	4.234081	1.434545	-0.000170
1955	9.7700e+01	0.9128	-20.349183	0.000524	5.242195	1.776104	-0.000210
1956	9.7750e+01	0.8871	-20.413777	0.000323	3.225966	1.092987	-0.000129
1957	9.7800e+01	0.8743	-20.506631	0.000464	4.637326	1.571169	-0.000186
1958	9.7850e+01	0.8518	-20.607559	0.000504	5.040572	1.707792	-0.000202
1959	9.7900e+01	0.8342	-20.591411	-0.000081	-0.806492	-0.273247	0.000032
1960	9.7950e+01	0.8117	-20.740785	0.000746	7.460047	2.527532	-0.000299
1961	9.8000e+01	0.7925	-20.809416	0.000343	3.427589	1.161299	-0.000137
1962	9.8050e+01	0.7764	-20.869973	0.000302	3.024343	1.024675	-0.000121
1963	9.8100e+01	0.7492	-20.987050	0.000585	5.847064	1.981039	-0.000234
1964	9.8150e+01	0.7428	-21.055681	0.000343	3.427589	1.161299	-0.000137
1965	9.8200e+01	0.7139	-21.124313	0.000343	3.427589	1.161299	-0.000137
1966	9.8250e+01	0.6962	-21.241390	0.000585	5.847064	1.981039	-0.000234
1967	9.8300e+01	0.6770	-21.318095	0.000383	3.830835	1.297922	-0.000153
1968	9.8350e+01	0.6625	-21.370578	0.000262	2.621098	0.888052	-0.000105
1969	9.8400e+01	0.6353	-21.447284	0.000383	3.830835	1.297922	-0.000153
1970	9.8450e+01	0.6160	-21.523989	0.000383	3.830835	1.297922	-0.000153
1971	9.8500e+01	0.6000	-21.616843	0.000464	4.637326	1.571169	-0.000186
1972	9.8550e+01	0.5791	-21.705660	0.000444	4.435703	1.502857	-0.000178
1973	9.8600e+01	0.5567	-21.766217	0.000302	3.024343	1.024675	-0.000121
1974	9.8650e+01	0.5326	-21.846960	0.000403	4.032458	1.366234	-0.000161
1975	9.8700e+01	0.5166	-21.907517	0.000302	3.024343	1.024675	-0.000121
1976	9.8750e+01	0.5005	-22.012483	0.000524	5.242195	1.776104	-0.000210
1977	9.8800e+01	0.4684	-22.101300	0.000444	4.435703	1.502857	-0.000178
1978	9.8850e+01	0.4476	-22.202228	0.000504	5.040572	1.707792	-0.000202
1979	9.8900e+01	0.4347	-22.254711	0.000262	2.621098	0.888052	-0.000105
1980	9.8950e+01	0.4203	-22.355639	0.000504	5.040572	1.707792	-0.000202
1981	9.9000e+01	0.3962	-22.391973	0.000181	1.814606	0.614805	-0.000073
1982	9.9050e+01	0.3866	-22.521162	0.000645	6.451932	2.185974	-0.000258
1983	9.9100e+01	0.3593	-22.521162	-0.000000	-0.000000	-0.000000	0.000000
1984	9.9150e+01	0.3353	-22.642276	0.000605	6.048687	2.049350	-0.000242
1985	9.9200e+01	0.3192	-22.727056	0.000423	4.234081	1.434545	-0.000170
1986	9.9250e+01	0.2904	-22.815873	0.000444	4.435703	1.502857	-0.000178
1987	9.9300e+01	0.2711	-22.864318	0.000242	2.419475	0.819740	-0.000097
1988	9.9350e+01	0.2535	-22.989469	0.000625	6.250309	2.117662	-0.000250
1989	9.9400e+01	0.2326	-23.017729	0.000141	1.411360	0.478182	-0.000057
1990	9.9450e+01	0.2102	-23.126732	0.000544	5.443818	1.844415	-0.000218
1991	9.9500e+01	0.2069	-23.183252	0.000282	2.822720	0.956364	-0.000113
1992	9.9550e+01	0.1749	-23.259958	0.000383	3.830835	1.297922	-0.000153
1993	9.9600e+01	0.1572	-23.356849	0.000484	4.838949	1.639480	-0.000194
1994	9.9650e+01	0.1315	-23.417406	0.000302	3.024343	1.024675	-0.000121
1995	9.9700e+01	0.1187	-23.490074	0.000363	3.629212	1.229610	-0.000145
1996	9.9750e+01	0.0882	-23.574854	0.000423	4.234081	1.434545	-0.000170
1997	9.9800e+01	0.0786	-23.659634	0.000423	4.234081	1.434545	-0.000170
1998	9.9850e+01	0.0561	-23.700005	0.000202	2.016229	0.683117	-0.000081
1999	9.9900e+01	0.0385	-23.792859	0.000464	4.637326	1.571169	-0.000186
2000	9.9950e+01	0.0144	-23.877639	0.000423	4.234081	1.434545	-0.000170
2001	1.0000e+02	-0.0016	-23.938196	0.000423	4.234081	1.434545	-0.000121

PMax (uC/cm2):	6.14e+01
Pr (uC/cm2):	6.76e+00
-Pr (uC/cm2):	0.00e+00
PLoss (uC/cm2):	0.00e+00
C (Max-Eff) (nF):	3.07e-01
K (Eff):	1.04e+03
Vert. (+/-Pr) Shift (uC/cm2):	3.38e+00
Offset (uC/cm2):	3.07e+01

A (Loop Area - uC/cm2·Volts):	-1.35e-01



Hysteresis Version: 5.48.1 - Radiant Technologies, Inc., 1999 - 9/12/24

