»»»»»»»»»»»»»»»»»»»»»»»»»»»»»»»»»»»» Hysteresis ««««««««««««««««««««««««««««««««««««
»»»  Executed Version:	5.48.1
»»»  Vision Version:	5.48.4 (R)
»»»  Vision Compiled:	9/18/24
»»»  Driver Version:	5.47.0
»»»  Windows Version:	Windows 8 or 8.1
»»»  Processor Information:	x86 (AMD or Intel) - 32 Processors
»»»  Tester Name:	PMF21124-494 (100V)
»»»  Tester S/N:	PMF21124-494
»»»  Internal Amp Type:	100V RevK 270k
»»»  Internal Amp S/N:	iAB2-596/K     
»»»  Execution Count:	1
»»»»»»»»»»»»»»»»»»»»»»»»»»»»»»»»»»»»»»»»»»««««««««««««««««««««««««««««««««««««««««««

Stored:	6/26/2025 - 14:36:2
Configured:	06/26/25 10:24:47 AM
Executed:	06/26/25 02:35:37 PM

»»»»»»»»»»»»»»»»»»»»»»»»»»»»»»»»»»» Sample Info ««««««««««««««««««««««««««««««««««««
Sample Name:	
Lot Name:	
Wafer Name:	
Die Row/Column:	0/0
Capacitor Number:	0
Sample Area (cm2):	1.00e-04
Sample Thickness (microns):	1.50e-01

Amplifier:	Internal

»»»»»»»»»»»»»»»»»»»»»»»»»»»»»»»»»»» Tester Info «««««««««««««««««««««««««««««««««««
Tester Name:	PMF21124-494 (100V)
Tester Serial Number:	PMF21124-494
Return Signal Amp. Level:	1.79 [Index: 2]

»»»»»»»»»»»»»»»»»»»»»»»»»»»»»»»» Hysteresis Info ««««««««««««««««««««««««««««««««««
Task Name:	Hyst-562
Volts:	10.00
Field:	666.67 (kV/cm)
DCBias:	0.00
DCField:	0.00 (kV/cm)
Hysteresis Period (ms):	1.00e+00
Preset:	Enabled
Preset Delay (ms):	1.00e+03
Profile:	Standard Monopolar

»»»»»»»»»»»»»»»»»»»»»»»»»»»»»»»»»»»»»» Data «««««««««««««««««««««««««««««««««««««««
Points:	2001

Valid Data

Point	Time (ms)	Drive Voltage	Measured Polarization (uC/cm2)	Capacitance (uF)	Normalized Capacitance (uF/cm2)	Dielectric Constant	Instantaneous Current (mA)
   1	0.0000e+00	-0.0030	-9.589711	0.000286	2.862696	0.484954	0.005730
   2	5.0000e-04	0.0053	-9.561060	0.000286	2.862696	0.484954	0.005730
   3	1.0000e-03	0.0170	-9.546093	0.000150	1.495438	0.253334	0.002993
   4	1.5000e-03	0.0262	-9.523429	0.000226	2.264521	0.383620	0.004533
   5	2.0000e-03	0.0361	-9.505041	0.000184	1.837253	0.311239	0.003678
   6	2.5000e-03	0.0455	-9.487936	0.000171	1.709072	0.289525	0.003421
   7	3.0000e-03	0.0577	-9.452871	0.000350	3.503598	0.593526	0.007013
   8	3.5000e-03	0.0656	-9.438759	0.000141	1.409985	0.238858	0.002822
   9	4.0000e-03	0.0735	-9.413957	0.000248	2.478155	0.419811	0.004960
  10	4.5000e-03	0.0853	-9.402838	0.000111	1.110897	0.188191	0.002224
  11	5.0000e-03	0.0954	-9.374615	0.000282	2.819969	0.477716	0.005645
  12	5.5000e-03	0.1058	-9.345537	0.000291	2.905423	0.492192	0.005816
  13	6.0000e-03	0.1156	-9.319024	0.000265	2.649062	0.448763	0.005303
  14	6.5000e-03	0.1239	-9.297215	0.000218	2.179067	0.369144	0.004362
  15	7.0000e-03	0.1373	-9.283531	0.000137	1.367258	0.231620	0.002737
  16	7.5000e-03	0.1469	-9.266854	0.000167	1.666345	0.282287	0.003335
  17	8.0000e-03	0.1546	-9.235637	0.000312	3.119057	0.528382	0.006243
  18	8.5000e-03	0.1640	-9.223663	0.000120	1.196350	0.202667	0.002395
  19	9.0000e-03	0.1759	-9.201854	0.000218	2.179067	0.369144	0.004362
  20	9.5000e-03	0.1862	-9.181756	0.000201	2.008160	0.340191	0.004020
  21	1.0000e-02	0.1987	-9.151395	0.000303	3.033603	0.513906	0.006072
  22	1.0500e-02	0.2060	-9.127448	0.000239	2.392701	0.405335	0.004789
  23	1.1000e-02	0.2184	-9.111626	0.000158	1.580892	0.267810	0.003164
  24	1.1500e-02	0.2241	-9.102645	0.000090	0.897263	0.152000	0.001796
  25	1.2000e-02	0.2363	-9.079554	0.000231	2.307247	0.390858	0.004618
  26	1.2500e-02	0.2446	-9.051330	0.000282	2.819969	0.477716	0.005645
  27	1.3000e-02	0.2560	-9.019258	0.000320	3.204510	0.542859	0.006414
  28	1.3500e-02	0.2662	-9.007713	0.000115	1.153624	0.195429	0.002309
  29	1.4000e-02	0.2753	-8.973930	0.000338	3.375417	0.571811	0.006756
  30	1.4500e-02	0.2856	-8.955542	0.000184	1.837253	0.311239	0.003678
  31	1.5000e-02	0.2946	-8.935016	0.000205	2.050887	0.347430	0.004105
  32	1.5500e-02	0.3060	-8.919194	0.000158	1.580892	0.267810	0.003164
  33	1.6000e-02	0.3181	-8.890116	0.000291	2.905423	0.492192	0.005816
  34	1.6500e-02	0.3254	-8.880280	0.000098	0.982716	0.166477	0.001967
  35	1.7000e-02	0.3336	-8.837090	0.000432	4.315407	0.731050	0.008638
  36	1.7500e-02	0.3467	-8.822551	0.000145	1.452711	0.246096	0.002908
  37	1.8000e-02	0.3563	-8.816564	0.000060	0.598175	0.101334	0.001197
  38	1.8500e-02	0.3651	-8.787486	0.000291	2.905423	0.492192	0.005816
  39	1.9000e-02	0.3766	-8.752848	0.000346	3.460871	0.586287	0.006928
  40	1.9500e-02	0.3843	-8.727190	0.000256	2.563608	0.434287	0.005132
  41	2.0000e-02	0.3982	-8.721631	0.000056	0.555448	0.094096	0.001112
  42	2.0500e-02	0.4082	-8.701105	0.000205	2.050887	0.347430	0.004105
  43	2.1000e-02	0.4173	-8.669889	0.000312	3.119057	0.528382	0.006243
  44	2.1500e-02	0.4264	-8.659626	0.000103	1.025443	0.173715	0.002053
  45	2.2000e-02	0.4361	-8.636106	0.000235	2.349974	0.398096	0.004704
  46	2.2500e-02	0.4436	-8.604890	0.000312	3.119057	0.528382	0.006243
  47	2.3000e-02	0.4575	-8.582653	0.000222	2.221794	0.376382	0.004447
  48	2.3500e-02	0.4666	-8.567686	0.000150	1.495438	0.253334	0.002993
  49	2.4000e-02	0.4769	-8.536042	0.000316	3.161783	0.535621	0.006329
  50	2.4500e-02	0.4855	-8.503970	0.000320	3.204510	0.542859	0.006414
  51	2.5000e-02	0.4956	-8.505681	-0.000017	-0.170907	-0.028952	-0.000342
  52	2.5500e-02	0.5084	-8.470615	0.000350	3.503598	0.593526	0.007013
  53	2.6000e-02	0.5170	-8.453510	0.000171	1.709072	0.289525	0.003421
  54	2.6500e-02	0.5266	-8.438543	0.000150	1.495438	0.253334	0.002993
  55	2.7000e-02	0.5383	-8.415879	0.000226	2.264521	0.383620	0.004533
  56	2.7500e-02	0.5451	-8.407327	0.000085	0.854536	0.144762	0.001711
  57	2.8000e-02	0.5568	-8.387656	0.000197	1.965433	0.332953	0.003934
  58	2.8500e-02	0.5632	-8.340190	0.000474	4.742675	0.803431	0.009493
  59	2.9000e-02	0.5776	-8.323512	0.000167	1.666345	0.282287	0.003335
  60	2.9500e-02	0.5856	-8.296999	0.000265	2.649062	0.448763	0.005303
  61	3.0000e-02	0.5955	-8.270487	0.000265	2.649062	0.448763	0.005303
  62	3.0500e-02	0.6066	-8.256375	0.000141	1.409985	0.238858	0.002822
  63	3.1000e-02	0.6165	-8.242263	0.000141	1.409985	0.238858	0.002822
  64	3.1500e-02	0.6258	-8.218316	0.000239	2.392701	0.405335	0.004789
  65	3.2000e-02	0.6360	-8.206770	0.000115	1.153624	0.195429	0.002309
  66	3.2500e-02	0.6458	-8.169995	0.000367	3.674505	0.622478	0.007355
  67	3.3000e-02	0.6544	-8.146048	0.000239	2.392701	0.405335	0.004789
  68	3.3500e-02	0.6631	-8.129798	0.000162	1.623619	0.275048	0.003250
  69	3.4000e-02	0.6760	-8.104140	0.000256	2.563608	0.434287	0.005132
  70	3.4500e-02	0.6877	-8.071641	0.000325	3.247237	0.550097	0.006500
  71	3.5000e-02	0.6974	-8.074207	-0.000026	-0.256361	-0.043429	-0.000513
  72	3.5500e-02	0.7037	-8.036576	0.000376	3.759959	0.636954	0.007526
  73	3.6000e-02	0.7168	-8.015194	0.000214	2.136340	0.361906	0.004276
  74	3.6500e-02	0.7239	-7.997234	0.000179	1.794526	0.304001	0.003592
  75	3.7000e-02	0.7352	-7.981840	0.000154	1.538165	0.260572	0.003079
  76	3.7500e-02	0.7449	-7.961741	0.000201	2.008160	0.340191	0.004020
  77	3.8000e-02	0.7591	-7.933090	0.000286	2.862696	0.484954	0.005730
  78	3.8500e-02	0.7658	-7.905722	0.000273	2.734515	0.463239	0.005474
  79	3.9000e-02	0.7764	-7.890755	0.000150	1.495438	0.253334	0.002993
  80	3.9500e-02	0.7870	-7.870229	0.000205	2.050887	0.347430	0.004105
  81	4.0000e-02	0.7970	-7.839440	0.000308	3.076330	0.521144	0.006158
  82	4.0500e-02	0.8057	-7.820625	0.000188	1.879979	0.318477	0.003763
  83	4.1000e-02	0.8147	-7.803520	0.000171	1.709072	0.289525	0.003421
  84	4.1500e-02	0.8276	-7.774014	0.000295	2.948149	0.499430	0.005901
  85	4.2000e-02	0.8373	-7.759047	0.000150	1.495438	0.253334	0.002993
  86	4.2500e-02	0.8455	-7.742369	0.000167	1.666345	0.282287	0.003335
  87	4.3000e-02	0.8571	-7.715001	0.000273	2.734515	0.463239	0.005474
  88	4.3500e-02	0.8661	-7.690627	0.000244	2.435428	0.412573	0.004875
  89	4.4000e-02	0.8769	-7.663686	0.000269	2.691789	0.456001	0.005388
  90	4.4500e-02	0.8867	-7.652996	0.000107	1.068170	0.180953	0.002138
  91	4.5000e-02	0.8942	-7.622634	0.000303	3.033603	0.513906	0.006072
  92	4.5500e-02	0.9048	-7.609378	0.000132	1.324531	0.224382	0.002651
  93	4.6000e-02	0.9161	-7.608950	0.000004	0.042727	0.007238	0.000086
  94	4.6500e-02	0.9265	-7.567898	0.000410	4.101773	0.694859	0.008210
  95	4.7000e-02	0.9377	-7.548228	0.000197	1.965433	0.332953	0.003934
  96	4.7500e-02	0.9467	-7.524708	0.000235	2.349974	0.398096	0.004704
  97	4.8000e-02	0.9573	-7.480235	0.000444	4.443588	0.752764	0.008895
  98	4.8500e-02	0.9644	-7.487505	-0.000073	-0.726356	-0.123048	-0.001454
  99	4.9000e-02	0.9776	-7.447308	0.000402	4.016319	0.680383	0.008039
 100	4.9500e-02	0.9857	-7.431913	0.000154	1.538165	0.260572	0.003079
 101	5.0000e-02	0.9958	-7.410105	0.000218	2.179067	0.369144	0.004362
 102	5.0500e-02	1.0033	-7.381881	0.000282	2.819969	0.477716	0.005645
 103	5.1000e-02	1.0172	-7.360928	0.000209	2.093613	0.354668	0.004191
 104	5.1500e-02	1.0281	-7.338264	0.000226	2.264521	0.383620	0.004533
 105	5.2000e-02	1.0372	-7.347244	-0.000090	-0.897263	-0.152000	-0.001796
 106	5.2500e-02	1.0487	-7.296784	0.000504	5.041763	0.854098	0.010092
 107	5.3000e-02	1.0568	-7.277113	0.000197	1.965433	0.332953	0.003934
 108	5.3500e-02	1.0698	-7.255732	0.000214	2.136340	0.361906	0.004276
 109	5.4000e-02	1.0764	-7.238199	0.000175	1.751799	0.296763	0.003507
 110	5.4500e-02	1.0889	-7.211686	0.000265	2.649062	0.448763	0.005303
 111	5.5000e-02	1.0960	-7.186029	0.000256	2.563608	0.434287	0.005132
 112	5.5500e-02	1.1086	-7.170634	0.000154	1.538165	0.260572	0.003079
 113	5.6000e-02	1.1194	-7.156950	0.000137	1.367258	0.231620	0.002737
 114	5.6500e-02	1.1267	-7.132148	0.000248	2.478155	0.419811	0.004960
 115	5.7000e-02	1.1359	-7.115471	0.000167	1.666345	0.282287	0.003335
 116	5.7500e-02	1.1464	-7.082971	0.000325	3.247237	0.550097	0.006500
 117	5.8000e-02	1.1572	-7.066721	0.000162	1.623619	0.275048	0.003250
 118	5.8500e-02	1.1678	-7.051327	0.000154	1.538165	0.260572	0.003079
 119	5.9000e-02	1.1770	-7.025242	0.000261	2.606335	0.441525	0.005217
 120	5.9500e-02	1.1853	-6.994025	0.000312	3.119057	0.528382	0.006243
 121	6.0000e-02	1.1987	-6.975210	0.000188	1.879979	0.318477	0.003763
 122	6.0500e-02	1.2039	-6.947842	0.000273	2.734515	0.463239	0.005474
 123	6.1000e-02	1.2186	-6.923039	0.000248	2.478155	0.419811	0.004960
 124	6.1500e-02	1.2263	-6.916197	0.000068	0.683629	0.115810	0.001368
 125	6.2000e-02	1.2347	-6.902513	0.000137	1.367258	0.231620	0.002737
 126	6.2500e-02	1.2469	-6.877711	0.000248	2.478155	0.419811	0.004960
 127	6.3000e-02	1.2572	-6.847350	0.000303	3.033603	0.513906	0.006072
 128	6.3500e-02	1.2700	-6.834521	0.000128	1.281804	0.217143	0.002566
 129	6.4000e-02	1.2766	-6.812712	0.000218	2.179067	0.369144	0.004362
 130	6.4500e-02	1.2865	-6.790476	0.000222	2.221794	0.376382	0.004447
 131	6.5000e-02	1.2996	-6.762680	0.000278	2.777242	0.470478	0.005559
 132	6.5500e-02	1.3074	-6.746858	0.000158	1.580892	0.267810	0.003164
 133	6.6000e-02	1.3160	-6.726332	0.000205	2.050887	0.347430	0.004105
 134	6.6500e-02	1.3272	-6.694687	0.000316	3.161783	0.535621	0.006329
 135	6.7000e-02	1.3356	-6.678865	0.000158	1.580892	0.267810	0.003164
 136	6.7500e-02	1.3457	-6.661760	0.000171	1.709072	0.289525	0.003421
 137	6.8000e-02	1.3565	-6.637386	0.000244	2.435428	0.412573	0.004875
 138	6.8500e-02	1.3666	-6.608735	0.000286	2.862696	0.484954	0.005730
 139	6.9000e-02	1.3753	-6.594196	0.000145	1.452711	0.246096	0.002908
 140	6.9500e-02	1.3840	-6.560841	0.000333	3.332691	0.564573	0.006671
 141	7.0000e-02	1.4025	-6.545446	0.000154	1.538165	0.260572	0.003079
 142	7.0500e-02	1.4039	-6.534756	0.000107	1.068170	0.180953	0.002138
 143	7.1000e-02	1.4148	-6.512519	0.000222	2.221794	0.376382	0.004447
 144	7.1500e-02	1.4285	-6.491138	0.000214	2.136340	0.361906	0.004276
 145	7.2000e-02	1.4373	-6.463770	0.000273	2.734515	0.463239	0.005474
 146	7.2500e-02	1.4446	-6.439395	0.000244	2.435428	0.412573	0.004875
 147	7.3000e-02	1.4552	-6.419297	0.000201	2.008160	0.340191	0.004020
 148	7.3500e-02	1.4667	-6.398343	0.000209	2.093613	0.354668	0.004191
 149	7.4000e-02	1.4735	-6.379528	0.000188	1.879979	0.318477	0.003763
 150	7.4500e-02	1.4877	-6.357719	0.000218	2.179067	0.369144	0.004362
 151	7.5000e-02	1.4969	-6.352160	0.000056	0.555448	0.094096	0.001112
 152	7.5500e-02	1.5061	-6.315811	0.000363	3.631778	0.615240	0.007270
 153	7.6000e-02	1.5152	-6.292292	0.000235	2.349974	0.398096	0.004704
 154	7.6500e-02	1.5257	-6.262358	0.000299	2.990876	0.506668	0.005987
 155	7.7000e-02	1.5385	-6.243115	0.000192	1.922706	0.325715	0.003849
 156	7.7500e-02	1.5509	-6.218741	0.000244	2.435428	0.412573	0.004875
 157	7.8000e-02	1.5549	-6.195221	0.000235	2.349974	0.398096	0.004704
 158	7.8500e-02	1.5662	-6.183675	0.000115	1.153624	0.195429	0.002309
 159	7.9000e-02	1.5763	-6.163149	0.000205	2.050887	0.347430	0.004105
 160	7.9500e-02	1.5849	-6.133643	0.000295	2.948149	0.499430	0.005901
 161	8.0000e-02	1.5944	-6.115255	0.000184	1.837253	0.311239	0.003678
 162	8.0500e-02	1.6049	-6.093019	0.000222	2.221794	0.376382	0.004447
 163	8.1000e-02	1.6153	-6.089598	0.000034	0.341814	0.057905	0.000684
 164	8.1500e-02	1.6250	-6.066934	0.000226	2.264521	0.383620	0.004533
 165	8.2000e-02	1.6393	-6.032724	0.000342	3.418144	0.579049	0.006842
 166	8.2500e-02	1.6448	-6.010059	0.000226	2.264521	0.383620	0.004533
 167	8.3000e-02	1.6553	-6.004500	0.000056	0.555448	0.094096	0.001112
 168	8.3500e-02	1.6676	-5.974567	0.000299	2.990876	0.506668	0.005987
 169	8.4000e-02	1.6743	-5.948909	0.000256	2.563608	0.434287	0.005132
 170	8.4500e-02	1.6846	-5.933942	0.000150	1.495438	0.253334	0.002993
 171	8.5000e-02	1.6959	-5.907002	0.000269	2.691789	0.456001	0.005388
 172	8.5500e-02	1.7053	-5.885193	0.000218	2.179067	0.369144	0.004362
 173	8.6000e-02	1.7163	-5.873219	0.000120	1.196350	0.202667	0.002395
 174	8.6500e-02	1.7239	-5.836871	0.000363	3.631778	0.615240	0.007270
 175	8.7000e-02	1.7342	-5.827463	0.000094	0.939990	0.159239	0.001882
 176	8.7500e-02	1.7455	-5.812924	0.000145	1.452711	0.246096	0.002908
 177	8.8000e-02	1.7552	-5.784273	0.000286	2.862696	0.484954	0.005730
 178	8.8500e-02	1.7670	-5.756905	0.000273	2.734515	0.463239	0.005474
 179	8.9000e-02	1.7757	-5.740228	0.000167	1.666345	0.282287	0.003335
 180	8.9500e-02	1.7861	-5.718419	0.000218	2.179067	0.369144	0.004362
 181	9.0000e-02	1.7965	-5.688913	0.000295	2.948149	0.499430	0.005901
 182	9.0500e-02	1.8073	-5.674801	0.000141	1.409985	0.238858	0.002822
 183	9.1000e-02	1.8143	-5.663255	0.000115	1.153624	0.195429	0.002309
 184	9.1500e-02	1.8245	-5.625197	0.000380	3.802685	0.644192	0.007612
 185	9.2000e-02	1.8376	-5.609375	0.000158	1.580892	0.267810	0.003164
 186	9.2500e-02	1.8452	-5.596973	0.000124	1.239077	0.209905	0.002480
 187	9.3000e-02	1.8558	-5.572171	0.000248	2.478155	0.419811	0.004960
 188	9.3500e-02	1.8663	-5.547797	0.000244	2.435428	0.412573	0.004875
 189	9.4000e-02	1.8765	-5.531119	0.000167	1.666345	0.282287	0.003335
 190	9.4500e-02	1.8867	-5.513586	0.000175	1.751799	0.296763	0.003507
 191	9.5000e-02	1.8968	-5.484936	0.000286	2.862696	0.484954	0.005730
 192	9.5500e-02	1.9025	-5.465692	0.000192	1.922706	0.325715	0.003849
 193	9.6000e-02	1.9165	-5.442173	0.000235	2.349974	0.398096	0.004704
 194	9.6500e-02	1.9252	-5.422502	0.000197	1.965433	0.332953	0.003934
 195	9.7000e-02	1.9356	-5.395990	0.000265	2.649062	0.448763	0.005303
 196	9.7500e-02	1.9454	-5.381878	0.000141	1.409985	0.238858	0.002822
 197	9.8000e-02	1.9548	-5.359641	0.000222	2.221794	0.376382	0.004447
 198	9.8500e-02	1.9633	-5.341253	0.000184	1.837253	0.311239	0.003678
 199	9.9000e-02	1.9758	-5.323721	0.000175	1.751799	0.296763	0.003507
 200	9.9500e-02	1.9870	-5.304050	0.000197	1.965433	0.332953	0.003934
 201	1.0000e-01	1.9969	-5.286090	0.000179	1.794526	0.304001	0.003592
 202	1.0050e-01	2.0065	-5.254446	0.000316	3.161783	0.535621	0.006329
 203	1.0100e-01	2.0150	-5.221946	0.000325	3.247237	0.550097	0.006500
 204	1.0150e-01	2.0247	-5.209545	0.000124	1.239077	0.209905	0.002480
 205	1.0200e-01	2.0357	-5.190729	0.000188	1.879979	0.318477	0.003763
 206	1.0250e-01	2.0436	-5.179611	0.000111	1.110897	0.188191	0.002224
 207	1.0300e-01	2.0569	-5.150533	0.000291	2.905423	0.492192	0.005816
 208	1.0350e-01	2.0656	-5.137276	0.000132	1.324531	0.224382	0.002651
 209	1.0400e-01	2.0763	-5.114184	0.000231	2.307247	0.390858	0.004618
 210	1.0450e-01	2.0853	-5.082540	0.000316	3.161783	0.535621	0.006329
 211	1.0500e-01	2.0934	-5.070994	0.000115	1.153624	0.195429	0.002309
 212	1.0550e-01	2.1082	-5.054745	0.000162	1.623619	0.275048	0.003250
 213	1.0600e-01	2.1140	-5.009844	0.000449	4.486314	0.760002	0.008980
 214	1.0650e-01	2.1252	-4.999581	0.000103	1.025443	0.173715	0.002053
 215	1.0700e-01	2.1365	-4.978627	0.000209	2.093613	0.354668	0.004191
 216	1.0750e-01	2.1454	-4.964943	0.000137	1.367258	0.231620	0.002737
 217	1.0800e-01	2.1576	-4.948693	0.000162	1.623619	0.275048	0.003250
 218	1.0850e-01	2.1652	-4.923464	0.000252	2.520881	0.427049	0.005046
 219	1.0900e-01	2.1771	-4.910635	0.000128	1.281804	0.217143	0.002566
 220	1.0950e-01	2.1838	-4.878563	0.000320	3.204510	0.542859	0.006414
 221	1.1000e-01	2.1957	-4.847346	0.000312	3.119057	0.528382	0.006243
 222	1.1050e-01	2.2055	-4.840932	0.000064	0.640902	0.108572	0.001283
 223	1.1100e-01	2.2148	-4.809715	0.000312	3.119057	0.528382	0.006243
 224	1.1150e-01	2.2297	-4.797742	0.000120	1.196350	0.202667	0.002395
 225	1.1200e-01	2.2366	-4.778926	0.000188	1.879979	0.318477	0.003763
 226	1.1250e-01	2.2462	-4.737874	0.000410	4.101773	0.694859	0.008210
 227	1.1300e-01	2.2574	-4.737019	0.000009	0.085454	0.014476	0.000171
 228	1.1350e-01	2.2654	-4.721197	0.000158	1.580892	0.267810	0.003164
 229	1.1400e-01	2.2762	-4.697250	0.000239	2.392701	0.405335	0.004789
 230	1.1450e-01	2.2867	-4.659191	0.000380	3.802685	0.644192	0.007612
 231	1.1500e-01	2.2963	-4.649356	0.000098	0.982716	0.166477	0.001967
 232	1.1550e-01	2.3074	-4.630113	0.000192	1.922706	0.325715	0.003849
 233	1.1600e-01	2.3169	-4.612580	0.000175	1.751799	0.296763	0.003507
 234	1.1650e-01	2.3254	-4.602317	0.000103	1.025443	0.173715	0.002053
 235	1.1700e-01	2.3379	-4.562975	0.000393	3.930866	0.665907	0.007868
 236	1.1750e-01	2.3470	-4.550574	0.000124	1.239077	0.209905	0.002480
 237	1.1800e-01	2.3550	-4.523206	0.000273	2.734515	0.463239	0.005474
 238	1.1850e-01	2.3664	-4.510805	0.000124	1.239077	0.209905	0.002480
 239	1.1900e-01	2.3743	-4.501397	0.000094	0.939990	0.159239	0.001882
 240	1.1950e-01	2.3884	-4.455214	0.000461	4.614495	0.781717	0.009237
 241	1.2000e-01	2.3917	-4.441530	0.000137	1.367258	0.231620	0.002737
 242	1.2050e-01	2.4058	-4.423570	0.000179	1.794526	0.304001	0.003592
 243	1.2100e-01	2.4168	-4.405182	0.000184	1.837253	0.311239	0.003678
 244	1.2150e-01	2.4279	-4.378669	0.000265	2.649062	0.448763	0.005303
 245	1.2200e-01	2.4368	-4.361564	0.000171	1.709072	0.289525	0.003421
 246	1.2250e-01	2.4487	-4.353011	0.000085	0.854536	0.144762	0.001711
 247	1.2300e-01	2.4548	-4.318801	0.000342	3.418144	0.579049	0.006842
 248	1.2350e-01	2.4672	-4.291861	0.000269	2.691789	0.456001	0.005388
 249	1.2400e-01	2.4771	-4.280743	0.000111	1.110897	0.188191	0.002224
 250	1.2450e-01	2.4876	-4.253802	0.000269	2.691789	0.456001	0.005388
 251	1.2500e-01	2.4982	-4.247388	0.000064	0.640902	0.108572	0.001283
 252	1.2550e-01	2.5061	-4.218737	0.000286	2.862696	0.484954	0.005730
 253	1.2600e-01	2.5161	-4.193080	0.000256	2.563608	0.434287	0.005132
 254	1.2650e-01	2.5272	-4.195218	-0.000021	-0.213634	-0.036191	-0.000428
 255	1.2700e-01	2.5359	-4.158442	0.000367	3.674505	0.622478	0.007355
 256	1.2750e-01	2.5473	-4.134923	0.000235	2.349974	0.398096	0.004704
 257	1.2800e-01	2.5562	-4.114397	0.000205	2.050887	0.347430	0.004105
 258	1.2850e-01	2.5691	-4.101995	0.000124	1.239077	0.209905	0.002480
 259	1.2900e-01	2.5763	-4.070779	0.000312	3.119057	0.528382	0.006243
 260	1.2950e-01	2.5851	-4.057522	0.000132	1.324531	0.224382	0.002651
 261	1.3000e-01	2.6004	-4.039562	0.000179	1.794526	0.304001	0.003592
 262	1.3050e-01	2.6050	-4.021174	0.000184	1.837253	0.311239	0.003678
 263	1.3100e-01	2.6158	-3.990385	0.000308	3.076330	0.521144	0.006158
 264	1.3150e-01	2.6279	-3.960879	0.000295	2.948149	0.499430	0.005901
 265	1.3200e-01	2.6363	-3.969859	-0.000090	-0.897263	-0.152000	-0.001796
 266	1.3250e-01	2.6465	-3.935649	0.000342	3.418144	0.579049	0.006842
 267	1.3300e-01	2.6576	-3.904005	0.000316	3.161783	0.535621	0.006329
 268	1.3350e-01	2.6678	-3.886045	0.000179	1.794526	0.304001	0.003592
 269	1.3400e-01	2.6773	-3.881768	0.000043	0.427268	0.072381	0.000855
 270	1.3450e-01	2.6852	-3.851835	0.000299	2.990876	0.506668	0.005987
 271	1.3500e-01	2.6949	-3.831309	0.000205	2.050887	0.347430	0.004105
 272	1.3550e-01	2.7072	-3.812066	0.000192	1.922706	0.325715	0.003849
 273	1.3600e-01	2.7200	-3.785125	0.000269	2.691789	0.456001	0.005388
 274	1.3650e-01	2.7264	-3.775290	0.000098	0.982716	0.166477	0.001967
 275	1.3700e-01	2.7408	-3.735948	0.000393	3.930866	0.665907	0.007868
 276	1.3750e-01	2.7473	-3.728251	0.000077	0.769082	0.130286	0.001539
 277	1.3800e-01	2.7561	-3.709435	0.000188	1.879979	0.318477	0.003763
 278	1.3850e-01	2.7692	-3.686771	0.000226	2.264521	0.383620	0.004533
 279	1.3900e-01	2.7754	-3.677791	0.000090	0.897263	0.152000	0.001796
 280	1.3950e-01	2.7870	-3.644009	0.000338	3.375417	0.571811	0.006756
 281	1.4000e-01	2.7969	-3.624338	0.000197	1.965433	0.332953	0.003934
 282	1.4050e-01	2.8046	-3.599108	0.000252	2.520881	0.427049	0.005046
 283	1.4100e-01	2.8178	-3.585852	0.000132	1.324531	0.224382	0.002651
 284	1.4150e-01	2.8259	-3.561477	0.000244	2.435428	0.412573	0.004875
 285	1.4200e-01	2.8370	-3.545655	0.000158	1.580892	0.267810	0.003164
 286	1.4250e-01	2.8444	-3.520425	0.000252	2.520881	0.427049	0.005046
 287	1.4300e-01	2.8574	-3.505886	0.000145	1.452711	0.246096	0.002908
 288	1.4350e-01	2.8664	-3.481084	0.000248	2.478155	0.419811	0.004960
 289	1.4400e-01	2.8766	-3.466972	0.000141	1.409985	0.238858	0.002822
 290	1.4450e-01	2.8851	-3.437038	0.000299	2.990876	0.506668	0.005987
 291	1.4500e-01	2.8991	-3.426348	0.000107	1.068170	0.180953	0.002138
 292	1.4550e-01	2.9042	-3.387861	0.000385	3.845412	0.651430	0.007697
 293	1.4600e-01	2.9156	-3.369046	0.000188	1.879979	0.318477	0.003763
 294	1.4650e-01	2.9282	-3.365197	0.000038	0.384541	0.065143	0.000770
 295	1.4700e-01	2.9376	-3.338257	0.000269	2.691789	0.456001	0.005388
 296	1.4750e-01	2.9489	-3.319869	0.000184	1.837253	0.311239	0.003678
 297	1.4800e-01	2.9562	-3.290790	0.000291	2.905423	0.492192	0.005816
 298	1.4850e-01	2.9688	-3.287369	0.000034	0.341814	0.057905	0.000684
 299	1.4900e-01	2.9752	-3.260857	0.000265	2.649062	0.448763	0.005303
 300	1.4950e-01	2.9874	-3.235199	0.000256	2.563608	0.434287	0.005132
 301	1.5000e-01	2.9987	-3.217239	0.000179	1.794526	0.304001	0.003592
 302	1.5050e-01	3.0075	-3.195002	0.000222	2.221794	0.376382	0.004447
 303	1.5100e-01	3.0164	-3.181746	0.000132	1.324531	0.224382	0.002651
 304	1.5150e-01	3.0267	-3.154805	0.000269	2.691789	0.456001	0.005388
 305	1.5200e-01	3.0377	-3.137273	0.000175	1.751799	0.296763	0.003507
 306	1.5250e-01	3.0463	-3.125727	0.000115	1.153624	0.195429	0.002309
 307	1.5300e-01	3.0609	-3.101352	0.000244	2.435428	0.412573	0.004875
 308	1.5350e-01	3.0661	-3.070136	0.000312	3.119057	0.528382	0.006243
 309	1.5400e-01	3.0777	-3.059445	0.000107	1.068170	0.180953	0.002138
 310	1.5450e-01	3.0858	-3.024380	0.000350	3.503598	0.593526	0.007013
 311	1.5500e-01	3.0946	-3.007275	0.000171	1.709072	0.289525	0.003421
 312	1.5550e-01	3.1068	-2.992735	0.000145	1.452711	0.246096	0.002908
 313	1.5600e-01	3.1155	-2.974348	0.000184	1.837253	0.311239	0.003678
 314	1.5650e-01	3.1244	-2.942276	0.000320	3.204510	0.542859	0.006414
 315	1.5700e-01	3.1375	-2.936289	0.000060	0.598175	0.101334	0.001197
 316	1.5750e-01	3.1470	-2.911914	0.000244	2.435428	0.412573	0.004875
 317	1.5800e-01	3.1589	-2.897375	0.000145	1.452711	0.246096	0.002908
 318	1.5850e-01	3.1670	-2.877277	0.000201	2.008160	0.340191	0.004020
 319	1.5900e-01	3.1766	-2.861027	0.000162	1.623619	0.275048	0.003250
 320	1.5950e-01	3.1866	-2.837935	0.000231	2.307247	0.390858	0.004618
 321	1.6000e-01	3.1982	-2.810139	0.000278	2.777242	0.470478	0.005559
 322	1.6050e-01	3.2075	-2.805008	0.000051	0.512722	0.086857	0.001026
 323	1.6100e-01	3.2251	-2.755403	0.000496	4.956309	0.839622	0.009921
 324	1.6150e-01	3.2254	-2.737443	0.000179	1.794526	0.304001	0.003592
 325	1.6200e-01	3.2374	-2.739154	-0.000017	-0.170907	-0.028952	-0.000342
 326	1.6250e-01	3.2455	-2.710075	0.000291	2.905423	0.492192	0.005816
 327	1.6300e-01	3.2578	-2.696819	0.000132	1.324531	0.224382	0.002651
 328	1.6350e-01	3.2669	-2.677148	0.000197	1.965433	0.332953	0.003934
 329	1.6400e-01	3.2796	-2.672017	0.000051	0.512722	0.086857	0.001026
 330	1.6450e-01	3.2861	-2.630537	0.000414	4.144500	0.702097	0.008296
 331	1.6500e-01	3.2993	-2.599320	0.000312	3.119057	0.528382	0.006243
 332	1.6550e-01	3.3060	-2.597182	0.000021	0.213634	0.036191	0.000428
 333	1.6600e-01	3.3142	-2.574090	0.000231	2.307247	0.390858	0.004618
 334	1.6650e-01	3.3266	-2.554847	0.000192	1.922706	0.325715	0.003849
 335	1.6700e-01	3.3347	-2.530045	0.000248	2.478155	0.419811	0.004960
 336	1.6750e-01	3.3466	-2.510802	0.000192	1.922706	0.325715	0.003849
 337	1.6800e-01	3.3569	-2.500111	0.000107	1.068170	0.180953	0.002138
 338	1.6850e-01	3.3688	-2.471888	0.000282	2.819969	0.477716	0.005645
 339	1.6900e-01	3.3791	-2.453500	0.000184	1.837253	0.311239	0.003678
 340	1.6950e-01	3.3868	-2.436395	0.000171	1.709072	0.289525	0.003421
 341	1.7000e-01	3.3955	-2.410737	0.000256	2.563608	0.434287	0.005132
 342	1.7050e-01	3.4064	-2.387218	0.000235	2.349974	0.398096	0.004704
 343	1.7100e-01	3.4189	-2.367975	0.000192	1.922706	0.325715	0.003849
 344	1.7150e-01	3.4248	-2.347449	0.000205	2.050887	0.347430	0.004105
 345	1.7200e-01	3.4399	-2.329916	0.000175	1.751799	0.296763	0.003507
 346	1.7250e-01	3.4474	-2.299555	0.000303	3.033603	0.513906	0.006072
 347	1.7300e-01	3.4547	-2.283305	0.000162	1.623619	0.275048	0.003250
 348	1.7350e-01	3.4676	-2.270476	0.000128	1.281804	0.217143	0.002566
 349	1.7400e-01	3.4801	-2.258931	0.000115	1.153624	0.195429	0.002309
 350	1.7450e-01	3.4830	-2.222155	0.000367	3.674505	0.622478	0.007355
 351	1.7500e-01	3.4964	-2.211892	0.000103	1.025443	0.173715	0.002053
 352	1.7550e-01	3.5059	-2.180675	0.000312	3.119057	0.528382	0.006243
 353	1.7600e-01	3.5144	-2.169129	0.000115	1.153624	0.195429	0.002309
 354	1.7650e-01	3.5260	-2.161860	0.000073	0.726356	0.123048	0.001454
 355	1.7700e-01	3.5371	-2.135347	0.000265	2.649062	0.448763	0.005303
 356	1.7750e-01	3.5430	-2.099426	0.000359	3.589051	0.608002	0.007184
 357	1.7800e-01	3.5553	-2.090019	0.000094	0.939990	0.159239	0.001882
 358	1.7850e-01	3.5669	-2.069920	0.000201	2.008160	0.340191	0.004020
 359	1.7900e-01	3.5750	-2.055381	0.000145	1.452711	0.246096	0.002908
 360	1.7950e-01	3.5889	-2.026302	0.000291	2.905423	0.492192	0.005816
 361	1.8000e-01	3.5938	-2.011335	0.000150	1.495438	0.253334	0.002993
 362	1.8050e-01	3.6072	-1.992520	0.000188	1.879979	0.318477	0.003763
 363	1.8100e-01	3.6179	-1.977553	0.000150	1.495438	0.253334	0.002993
 364	1.8150e-01	3.6263	-1.945054	0.000325	3.247237	0.550097	0.006500
 365	1.8200e-01	3.6384	-1.929231	0.000158	1.580892	0.267810	0.003164
 366	1.8250e-01	3.6475	-1.919824	0.000094	0.939990	0.159239	0.001882
 367	1.8300e-01	3.6551	-1.889035	0.000308	3.076330	0.521144	0.006158
 368	1.8350e-01	3.6658	-1.877061	0.000120	1.196350	0.202667	0.002395
 369	1.8400e-01	3.6753	-1.842423	0.000346	3.460871	0.586287	0.006928
 370	1.8450e-01	3.6868	-1.823180	0.000192	1.922706	0.325715	0.003849
 371	1.8500e-01	3.6951	-1.821042	0.000021	0.213634	0.036191	0.000428
 372	1.8550e-01	3.7085	-1.799233	0.000218	2.179067	0.369144	0.004362
 373	1.8600e-01	3.7173	-1.766306	0.000329	3.289964	0.557335	0.006585
 374	1.8650e-01	3.7271	-1.771865	-0.000056	-0.555448	-0.094096	-0.001112
 375	1.8700e-01	3.7339	-1.725682	0.000461	4.614495	0.781717	0.009237
 376	1.8750e-01	3.7440	-1.710287	0.000154	1.538165	0.260572	0.003079
 377	1.8800e-01	3.7595	-1.694038	0.000162	1.623619	0.275048	0.003250
 378	1.8850e-01	3.7650	-1.682492	0.000115	1.153624	0.195429	0.002309
 379	1.8900e-01	3.7738	-1.664104	0.000184	1.837253	0.311239	0.003678
 380	1.8950e-01	3.7866	-1.634598	0.000295	2.948149	0.499430	0.005901
 381	1.9000e-01	3.7956	-1.621341	0.000132	1.324531	0.224382	0.002651
 382	1.9050e-01	3.8049	-1.599960	0.000214	2.136340	0.361906	0.004276
 383	1.9100e-01	3.8135	-1.579862	0.000201	2.008160	0.340191	0.004020
 384	1.9150e-01	3.8254	-1.543513	0.000363	3.631778	0.615240	0.007270
 385	1.9200e-01	3.8379	-1.528119	0.000154	1.538165	0.260572	0.003079
 386	1.9250e-01	3.8483	-1.519139	0.000090	0.897263	0.152000	0.001796
 387	1.9300e-01	3.8568	-1.503317	0.000158	1.580892	0.267810	0.003164
 388	1.9350e-01	3.8667	-1.477232	0.000261	2.606335	0.441525	0.005217
 389	1.9400e-01	3.8770	-1.442594	0.000346	3.460871	0.586287	0.006928
 390	1.9450e-01	3.8857	-1.440028	0.000026	0.256361	0.043429	0.000513
 391	1.9500e-01	3.8971	-1.418219	0.000218	2.179067	0.369144	0.004362
 392	1.9550e-01	3.9042	-1.392134	0.000261	2.606335	0.441525	0.005217
 393	1.9600e-01	3.9187	-1.381871	0.000103	1.025443	0.173715	0.002053
 394	1.9650e-01	3.9253	-1.357069	0.000248	2.478155	0.419811	0.004960
 395	1.9700e-01	3.9362	-1.343385	0.000137	1.367258	0.231620	0.002737
 396	1.9750e-01	3.9462	-1.316017	0.000273	2.734515	0.463239	0.005474
 397	1.9800e-01	3.9572	-1.299767	0.000162	1.623619	0.275048	0.003250
 398	1.9850e-01	3.9661	-1.286511	0.000132	1.324531	0.224382	0.002651
 399	1.9900e-01	3.9804	-1.262136	0.000244	2.435428	0.412573	0.004875
 400	1.9950e-01	3.9880	-1.251445	0.000107	1.068170	0.180953	0.002138
 401	2.0000e-01	3.9960	-1.226643	0.000248	2.478155	0.419811	0.004960
 402	2.0050e-01	4.0070	-1.203551	0.000231	2.307247	0.390858	0.004618
 403	2.0100e-01	4.0181	-1.197137	0.000064	0.640902	0.108572	0.001283
 404	2.0150e-01	4.0269	-1.171052	0.000261	2.606335	0.441525	0.005217
 405	2.0200e-01	4.0369	-1.147532	0.000235	2.349974	0.398096	0.004704
 406	2.0250e-01	4.0479	-1.122303	0.000252	2.520881	0.427049	0.005046
 407	2.0300e-01	4.0573	-1.103487	0.000188	1.879979	0.318477	0.003763
 408	2.0350e-01	4.0668	-1.092369	0.000111	1.110897	0.188191	0.002224
 409	2.0400e-01	4.0771	-1.066711	0.000256	2.563608	0.434287	0.005132
 410	2.0450e-01	4.0874	-1.040626	0.000261	2.606335	0.441525	0.005217
 411	2.0500e-01	4.0985	-1.032929	0.000077	0.769082	0.130286	0.001539
 412	2.0550e-01	4.1052	-1.015396	0.000175	1.751799	0.296763	0.003507
 413	2.0600e-01	4.1139	-0.989311	0.000261	2.606335	0.441525	0.005217
 414	2.0650e-01	4.1273	-0.970068	0.000192	1.922706	0.325715	0.003849
 415	2.0700e-01	4.1383	-0.948687	0.000214	2.136340	0.361906	0.004276
 416	2.0750e-01	4.1463	-0.926878	0.000218	2.179067	0.369144	0.004362
 417	2.0800e-01	4.1547	-0.916615	0.000103	1.025443	0.173715	0.002053
 418	2.0850e-01	4.1656	-0.894378	0.000222	2.221794	0.376382	0.004447
 419	2.0900e-01	4.1766	-0.873425	0.000209	2.093613	0.354668	0.004191
 420	2.0950e-01	4.1873	-0.856747	0.000167	1.666345	0.282287	0.003335
 421	2.1000e-01	4.1968	-0.835366	0.000214	2.136340	0.361906	0.004276
 422	2.1050e-01	4.2067	-0.818261	0.000171	1.709072	0.289525	0.003421
 423	2.1100e-01	4.2154	-0.797307	0.000209	2.093613	0.354668	0.004191
 424	2.1150e-01	4.2250	-0.772505	0.000248	2.478155	0.419811	0.004960
 425	2.1200e-01	4.2343	-0.750269	0.000222	2.221794	0.376382	0.004447
 426	2.1250e-01	4.2438	-0.729315	0.000209	2.093613	0.354668	0.004191
 427	2.1300e-01	4.2537	-0.708789	0.000205	2.050887	0.347430	0.004105
 428	2.1350e-01	4.2667	-0.692112	0.000167	1.666345	0.282287	0.003335
 429	2.1400e-01	4.2787	-0.686125	0.000060	0.598175	0.101334	0.001197
 430	2.1450e-01	4.2868	-0.648494	0.000376	3.759959	0.636954	0.007526
 431	2.1500e-01	4.2949	-0.630533	0.000179	1.794526	0.304001	0.003592
 432	2.1550e-01	4.3057	-0.611718	0.000188	1.879979	0.318477	0.003763
 433	2.1600e-01	4.3216	-0.607442	0.000043	0.427268	0.072381	0.000855
 434	2.1650e-01	4.3298	-0.590337	0.000171	1.709072	0.289525	0.003421
 435	2.1700e-01	4.3369	-0.571521	0.000188	1.879979	0.318477	0.003763
 436	2.1750e-01	4.3445	-0.549285	0.000222	2.221794	0.376382	0.004447
 437	2.1800e-01	4.3542	-0.515502	0.000338	3.375417	0.571811	0.006756
 438	2.1850e-01	4.3658	-0.482575	0.000329	3.289964	0.557335	0.006585
 439	2.1900e-01	4.3762	-0.509088	-0.000265	-2.649062	-0.448763	-0.005303
 440	2.1950e-01	4.3842	-0.462049	0.000470	4.699948	0.796193	0.009408
 441	2.2000e-01	4.3991	-0.442806	0.000192	1.922706	0.325715	0.003849
 442	2.2050e-01	4.4067	-0.429122	0.000137	1.367258	0.231620	0.002737
 443	2.2100e-01	4.4196	-0.413727	0.000154	1.538165	0.260572	0.003079
 444	2.2150e-01	4.4263	-0.394057	0.000197	1.965433	0.332953	0.003934
 445	2.2200e-01	4.4391	-0.369254	0.000248	2.478155	0.419811	0.004960
 446	2.2250e-01	4.4458	-0.348301	0.000209	2.093613	0.354668	0.004191
 447	2.2300e-01	4.4525	-0.332479	0.000158	1.580892	0.267810	0.003164
 448	2.2350e-01	4.4666	-0.316229	0.000162	1.623619	0.275048	0.003250
 449	2.2400e-01	4.4769	-0.297413	0.000188	1.879979	0.318477	0.003763
 450	2.2450e-01	4.4858	-0.272611	0.000248	2.478155	0.419811	0.004960
 451	2.2500e-01	4.4962	-0.253796	0.000188	1.879979	0.318477	0.003763
 452	2.2550e-01	4.5062	-0.237546	0.000162	1.623619	0.275048	0.003250
 453	2.2600e-01	4.5160	-0.204191	0.000333	3.332691	0.564573	0.006671
 454	2.2650e-01	4.5288	-0.195639	0.000085	0.854536	0.144762	0.001711
 455	2.2700e-01	4.5392	-0.190935	0.000047	0.469995	0.079619	0.000941
 456	2.2750e-01	4.5483	-0.165277	0.000256	2.563608	0.434287	0.005132
 457	2.2800e-01	4.5602	-0.139192	0.000261	2.606335	0.441525	0.005217
 458	2.2850e-01	4.5642	-0.119094	0.000201	2.008160	0.340191	0.004020
 459	2.2900e-01	4.5755	-0.104554	0.000145	1.452711	0.246096	0.002908
 460	2.2950e-01	4.5889	-0.076759	0.000278	2.777242	0.470478	0.005559
 461	2.3000e-01	4.5981	-0.068206	0.000085	0.854536	0.144762	0.001711
 462	2.3050e-01	4.6078	-0.045542	0.000226	2.264521	0.383620	0.004533
 463	2.3100e-01	4.6170	-0.019885	0.000256	2.563608	0.434287	0.005132
 464	2.3150e-01	4.6274	-0.007911	0.000120	1.196350	0.202667	0.002395
 465	2.3200e-01	4.6375	0.020312	0.000282	2.819969	0.477716	0.005645
 466	2.3250e-01	4.6475	0.033141	0.000128	1.281804	0.217143	0.002566
 467	2.3300e-01	4.6558	0.051529	0.000184	1.837253	0.311239	0.003678
 468	2.3350e-01	4.6657	0.086166	0.000346	3.460871	0.586287	0.006928
 469	2.3400e-01	4.6766	0.101989	0.000158	1.580892	0.267810	0.003164
 470	2.3450e-01	4.6867	0.116956	0.000150	1.495438	0.253334	0.002993
 471	2.3500e-01	4.6967	0.137909	0.000209	2.093613	0.354668	0.004191
 472	2.3550e-01	4.7052	0.148172	0.000103	1.025443	0.173715	0.002053
 473	2.3600e-01	4.7171	0.177678	0.000295	2.948149	0.499430	0.005901
 474	2.3650e-01	4.7249	0.193928	0.000162	1.623619	0.275048	0.003250
 475	2.3700e-01	4.7382	0.206329	0.000124	1.239077	0.209905	0.002480
 476	2.3750e-01	4.7479	0.224289	0.000179	1.794526	0.304001	0.003592
 477	2.3800e-01	4.7574	0.249519	0.000252	2.520881	0.427049	0.005046
 478	2.3850e-01	4.7687	0.262776	0.000132	1.324531	0.224382	0.002651
 479	2.3900e-01	4.7787	0.288861	0.000261	2.606335	0.441525	0.005217
 480	2.3950e-01	4.7885	0.298269	0.000094	0.939990	0.159239	0.001882
 481	2.4000e-01	4.8004	0.318367	0.000201	2.008160	0.340191	0.004020
 482	2.4050e-01	4.8059	0.336327	0.000179	1.794526	0.304001	0.003592
 483	2.4100e-01	4.8157	0.362840	0.000265	2.649062	0.448763	0.005303
 484	2.4150e-01	4.8267	0.389353	0.000265	2.649062	0.448763	0.005303
 485	2.4200e-01	4.8355	0.404747	0.000154	1.538165	0.260572	0.003079
 486	2.4250e-01	4.8480	0.418004	0.000132	1.324531	0.224382	0.002651
 487	2.4300e-01	4.8578	0.441095	0.000231	2.307247	0.390858	0.004618
 488	2.4350e-01	4.8682	0.457345	0.000162	1.623619	0.275048	0.003250
 489	2.4400e-01	4.8767	0.468036	0.000107	1.068170	0.180953	0.002138
 490	2.4450e-01	4.8875	0.487279	0.000192	1.922706	0.325715	0.003849
 491	2.4500e-01	4.8975	0.508233	0.000209	2.093613	0.354668	0.004191
 492	2.4550e-01	4.9054	0.533890	0.000256	2.563608	0.434287	0.005132
 493	2.4600e-01	4.9158	0.559548	0.000256	2.563608	0.434287	0.005132
 494	2.4650e-01	4.9254	0.571949	0.000124	1.239077	0.209905	0.002480
 495	2.4700e-01	4.9379	0.567245	-0.000047	-0.469995	-0.079619	-0.000941
 496	2.4750e-01	4.9469	0.608297	0.000410	4.101773	0.694859	0.008210
 497	2.4800e-01	4.9585	0.637375	0.000291	2.905423	0.492192	0.005816
 498	2.4850e-01	4.9611	0.645073	0.000077	0.769082	0.130286	0.001539
 499	2.4900e-01	4.9771	0.663033	0.000179	1.794526	0.304001	0.003592
 500	2.4950e-01	4.9850	0.695105	0.000320	3.204510	0.542859	0.006414
 501	2.5000e-01	4.9960	0.712210	0.000171	1.709072	0.289525	0.003421
 502	2.5050e-01	5.0098	0.729743	0.000175	1.751799	0.296763	0.003507
 503	2.5100e-01	5.0189	0.747703	0.000179	1.794526	0.304001	0.003592
 504	2.5150e-01	5.0281	0.760104	0.000124	1.239077	0.209905	0.002480
 505	2.5200e-01	5.0397	0.775071	0.000150	1.495438	0.253334	0.002993
 506	2.5250e-01	5.0479	0.770795	-0.000043	-0.427268	-0.072381	-0.000855
 507	2.5300e-01	5.0568	0.815268	0.000444	4.443588	0.752764	0.008895
 508	2.5350e-01	5.0690	0.828952	0.000137	1.367258	0.231620	0.002737
 509	2.5400e-01	5.0769	0.841780	0.000128	1.281804	0.217143	0.002566
 510	2.5450e-01	5.0903	0.877273	0.000355	3.546325	0.600764	0.007099
 511	2.5500e-01	5.0958	0.894378	0.000171	1.709072	0.289525	0.003421
 512	2.5550e-01	5.1056	0.913194	0.000188	1.879979	0.318477	0.003763
 513	2.5600e-01	5.1172	0.923029	0.000098	0.982716	0.166477	0.001967
 514	2.5650e-01	5.1270	0.948687	0.000256	2.563608	0.434287	0.005132
 515	2.5700e-01	5.1355	0.970496	0.000218	2.179067	0.369144	0.004362
 516	2.5750e-01	5.1472	0.986745	0.000162	1.623619	0.275048	0.003250
 517	2.5800e-01	5.1556	1.015824	0.000291	2.905423	0.492192	0.005816
 518	2.5850e-01	5.1695	1.025659	0.000098	0.982716	0.166477	0.001967
 519	2.5900e-01	5.1782	1.038060	0.000124	1.239077	0.209905	0.002480
 520	2.5950e-01	5.1855	1.061580	0.000235	2.349974	0.398096	0.004704
 521	2.6000e-01	5.1990	1.078257	0.000167	1.666345	0.282287	0.003335
 522	2.6050e-01	5.2036	1.100066	0.000218	2.179067	0.369144	0.004362
 523	2.6100e-01	5.2167	1.128717	0.000286	2.862696	0.484954	0.005730
 524	2.6150e-01	5.2261	1.133421	0.000047	0.469995	0.079619	0.000941
 525	2.6200e-01	5.2386	1.156513	0.000231	2.307247	0.390858	0.004618
 526	2.6250e-01	5.2432	1.189440	0.000329	3.289964	0.557335	0.006585
 527	2.6300e-01	5.2563	1.197992	0.000085	0.854536	0.144762	0.001711
 528	2.6350e-01	5.2646	1.223650	0.000256	2.563608	0.434287	0.005132
 529	2.6400e-01	5.2759	1.228354	0.000047	0.469995	0.079619	0.000941
 530	2.6450e-01	5.2853	1.247597	0.000192	1.922706	0.325715	0.003849
 531	2.6500e-01	5.2966	1.265557	0.000179	1.794526	0.304001	0.003592
 532	2.6550e-01	5.3085	1.304043	0.000385	3.845412	0.651430	0.007697
 533	2.6600e-01	5.3186	1.307464	0.000034	0.341814	0.057905	0.000684
 534	2.6650e-01	5.3287	1.313879	0.000064	0.640902	0.108572	0.001283
 535	2.6700e-01	5.3369	1.339109	0.000252	2.520881	0.427049	0.005046
 536	2.6750e-01	5.3474	1.363911	0.000248	2.478155	0.419811	0.004960
 537	2.6800e-01	5.3583	1.387003	0.000231	2.307247	0.390858	0.004618
 538	2.6850e-01	5.3665	1.379733	-0.000073	-0.726356	-0.123048	-0.001454
 539	2.6900e-01	5.3763	1.418219	0.000385	3.845412	0.651430	0.007697
 540	2.6950e-01	5.3851	1.432331	0.000141	1.409985	0.238858	0.002822
 541	2.7000e-01	5.3998	1.457133	0.000248	2.478155	0.419811	0.004960
 542	2.7050e-01	5.4062	1.459699	0.000026	0.256361	0.043429	0.000513
 543	2.7100e-01	5.4144	1.481508	0.000218	2.179067	0.369144	0.004362
 544	2.7150e-01	5.4279	1.514435	0.000329	3.289964	0.557335	0.006585
 545	2.7200e-01	5.4358	1.518711	0.000043	0.427268	0.072381	0.000855
 546	2.7250e-01	5.4459	1.552494	0.000338	3.375417	0.571811	0.006756
 547	2.7300e-01	5.4599	1.569171	0.000167	1.666345	0.282287	0.003335
 548	2.7350e-01	5.4657	1.582855	0.000137	1.367258	0.231620	0.002737
 549	2.7400e-01	5.4779	1.599960	0.000171	1.709072	0.289525	0.003421
 550	2.7450e-01	5.4877	1.614499	0.000145	1.452711	0.246096	0.002908
 551	2.7500e-01	5.4965	1.635453	0.000209	2.093613	0.354668	0.004191
 552	2.7550e-01	5.5084	1.659400	0.000239	2.392701	0.405335	0.004789
 553	2.7600e-01	5.5157	1.677360	0.000179	1.794526	0.304001	0.003592
 554	2.7650e-01	5.5273	1.694465	0.000171	1.709072	0.289525	0.003421
 555	2.7700e-01	5.5353	1.722261	0.000278	2.777242	0.470478	0.005559
 556	2.7750e-01	5.5457	1.748774	0.000265	2.649062	0.448763	0.005303
 557	2.7800e-01	5.5560	1.759464	0.000107	1.068170	0.180953	0.002138
 558	2.7850e-01	5.5670	1.776569	0.000171	1.709072	0.289525	0.003421
 559	2.7900e-01	5.5786	1.789398	0.000128	1.281804	0.217143	0.002566
 560	2.7950e-01	5.5860	1.792391	0.000030	0.299088	0.050667	0.000599
 561	2.8000e-01	5.5984	1.820187	0.000278	2.777242	0.470478	0.005559
 562	2.8050e-01	5.6076	1.841568	0.000214	2.136340	0.361906	0.004276
 563	2.8100e-01	5.6158	1.862094	0.000205	2.050887	0.347430	0.004105
 564	2.8150e-01	5.6219	1.899725	0.000376	3.759959	0.636954	0.007526
 565	2.8200e-01	5.6354	1.903574	0.000038	0.384541	0.065143	0.000770
 566	2.8250e-01	5.6458	1.927949	0.000244	2.435428	0.412573	0.004875
 567	2.8300e-01	5.6549	1.935646	0.000077	0.769082	0.130286	0.001539
 568	2.8350e-01	5.6659	1.955317	0.000197	1.965433	0.332953	0.003934
 569	2.8400e-01	5.6769	1.969428	0.000141	1.409985	0.238858	0.002822
 570	2.8450e-01	5.6873	1.991237	0.000218	2.179067	0.369144	0.004362
 571	2.8500e-01	5.6958	2.013046	0.000218	2.179067	0.369144	0.004362
 572	2.8550e-01	5.7062	2.028013	0.000150	1.495438	0.253334	0.002993
 573	2.8600e-01	5.7172	2.048111	0.000201	2.008160	0.340191	0.004020
 574	2.8650e-01	5.7245	2.074624	0.000265	2.649062	0.448763	0.005303
 575	2.8700e-01	5.7376	2.090019	0.000154	1.538165	0.260572	0.003079
 576	2.8750e-01	5.7458	2.118242	0.000282	2.819969	0.477716	0.005645
 577	2.8800e-01	5.7568	2.121663	0.000034	0.341814	0.057905	0.000684
 578	2.8850e-01	5.7666	2.140478	0.000188	1.879979	0.318477	0.003763
 579	2.8900e-01	5.7765	2.163570	0.000231	2.307247	0.390858	0.004618
 580	2.8950e-01	5.7864	2.187517	0.000239	2.392701	0.405335	0.004789
 581	2.9000e-01	5.7983	2.201629	0.000141	1.409985	0.238858	0.002822
 582	2.9050e-01	5.8057	2.220444	0.000188	1.879979	0.318477	0.003763
 583	2.9100e-01	5.8157	2.236694	0.000162	1.623619	0.275048	0.003250
 584	2.9150e-01	5.8270	2.262352	0.000256	2.563608	0.434287	0.005132
 585	2.9200e-01	5.8364	2.278174	0.000158	1.580892	0.267810	0.003164
 586	2.9250e-01	5.8453	2.285871	0.000077	0.769082	0.130286	0.001539
 587	2.9300e-01	5.8582	2.303831	0.000179	1.794526	0.304001	0.003592
 588	2.9350e-01	5.8646	2.328206	0.000244	2.435428	0.412573	0.004875
 589	2.9400e-01	5.8749	2.349587	0.000214	2.136340	0.361906	0.004276
 590	2.9450e-01	5.8844	2.357712	0.000081	0.811809	0.137524	0.001625
 591	2.9500e-01	5.8957	2.394915	0.000372	3.717232	0.629716	0.007441
 592	2.9550e-01	5.9067	2.405178	0.000103	1.025443	0.173715	0.002053
 593	2.9600e-01	5.9167	2.429553	0.000244	2.435428	0.412573	0.004875
 594	2.9650e-01	5.9268	2.432119	0.000026	0.256361	0.043429	0.000513
 595	2.9700e-01	5.9357	2.454355	0.000222	2.221794	0.376382	0.004447
 596	2.9750e-01	5.9476	2.473171	0.000188	1.879979	0.318477	0.003763
 597	2.9800e-01	5.9558	2.486855	0.000137	1.367258	0.231620	0.002737
 598	2.9850e-01	5.9650	2.523203	0.000363	3.631778	0.615240	0.007270
 599	2.9900e-01	5.9747	2.535176	0.000120	1.196350	0.202667	0.002395
 600	2.9950e-01	5.9875	2.554420	0.000192	1.922706	0.325715	0.003849
 601	3.0000e-01	5.9958	2.571525	0.000171	1.709072	0.289525	0.003421
 602	3.0050e-01	6.0091	2.584353	0.000128	1.281804	0.217143	0.002566
 603	3.0100e-01	6.0162	2.602314	0.000179	1.794526	0.304001	0.003592
 604	3.0150e-01	6.0269	2.628826	0.000265	2.649062	0.448763	0.005303
 605	3.0200e-01	6.0413	2.628826	0.000000	0.000000	0.000000	0.000000
 606	3.0250e-01	6.0445	2.647642	0.000188	1.879979	0.318477	0.003763
 607	3.0300e-01	6.0565	2.680997	0.000333	3.332691	0.564573	0.006671
 608	3.0350e-01	6.0669	2.692115	0.000111	1.110897	0.188191	0.002224
 609	3.0400e-01	6.0779	2.713496	0.000214	2.136340	0.361906	0.004276
 610	3.0450e-01	6.0889	2.730174	0.000167	1.666345	0.282287	0.003335
 611	3.0500e-01	6.0956	2.750700	0.000205	2.050887	0.347430	0.004105
 612	3.0550e-01	6.1069	2.772508	0.000218	2.179067	0.369144	0.004362
 613	3.0600e-01	6.1160	2.794317	0.000218	2.179067	0.369144	0.004362
 614	3.0650e-01	6.1261	2.829383	0.000350	3.503598	0.593526	0.007013
 615	3.0700e-01	6.1366	2.817409	-0.000120	-1.196350	-0.202667	-0.002395
 616	3.0750e-01	6.1459	2.846060	0.000286	2.862696	0.484954	0.005730
 617	3.0800e-01	6.1540	2.862737	0.000167	1.666345	0.282287	0.003335
 618	3.0850e-01	6.1670	2.881553	0.000188	1.879979	0.318477	0.003763
 619	3.0900e-01	6.1757	2.912770	0.000312	3.119057	0.528382	0.006243
 620	3.0950e-01	6.1853	2.913625	0.000009	0.085454	0.014476	0.000171
 621	3.1000e-01	6.1969	2.942276	0.000286	2.862696	0.484954	0.005730
 622	3.1050e-01	6.2024	2.959808	0.000175	1.751799	0.296763	0.003507
 623	3.1100e-01	6.2195	2.964512	0.000047	0.469995	0.079619	0.000941
 624	3.1150e-01	6.2283	2.989314	0.000248	2.478155	0.419811	0.004960
 625	3.1200e-01	6.2335	3.008130	0.000188	1.879979	0.318477	0.003763
 626	3.1250e-01	6.2476	3.030794	0.000226	2.264521	0.383620	0.004533
 627	3.1300e-01	6.2561	3.042768	0.000120	1.196350	0.202667	0.002395
 628	3.1350e-01	6.2634	3.085530	0.000427	4.272680	0.723812	0.008553
 629	3.1400e-01	6.2769	3.082109	-0.000034	-0.341814	-0.057905	-0.000684
 630	3.1450e-01	6.2860	3.094510	0.000124	1.239077	0.209905	0.002480
 631	3.1500e-01	6.2967	3.114181	0.000197	1.965433	0.332953	0.003934
 632	3.1550e-01	6.3062	3.121023	0.000068	0.683629	0.115810	0.001368
 633	3.1600e-01	6.3165	3.150957	0.000299	2.990876	0.506668	0.005987
 634	3.1650e-01	6.3258	3.168489	0.000175	1.751799	0.296763	0.003507
 635	3.1700e-01	6.3339	3.203127	0.000346	3.460871	0.586287	0.006928
 636	3.1750e-01	6.3452	3.222798	0.000197	1.965433	0.332953	0.003934
 637	3.1800e-01	6.3574	3.224508	0.000017	0.170907	0.028952	0.000342
 638	3.1850e-01	6.3675	3.235199	0.000107	1.068170	0.180953	0.002138
 639	3.1900e-01	6.3745	3.257008	0.000218	2.179067	0.369144	0.004362
 640	3.1950e-01	6.3867	3.275823	0.000188	1.879979	0.318477	0.003763
 641	3.2000e-01	6.3965	3.301909	0.000261	2.606335	0.441525	0.005217
 642	3.2050e-01	6.4069	3.315165	0.000132	1.324531	0.224382	0.002651
 643	3.2100e-01	6.4142	3.338257	0.000231	2.307247	0.390858	0.004618
 644	3.2150e-01	6.4241	3.364769	0.000265	2.649062	0.448763	0.005303
 645	3.2200e-01	6.4344	3.385723	0.000209	2.093613	0.354668	0.004191
 646	3.2250e-01	6.4471	3.387861	0.000021	0.213634	0.036191	0.000428
 647	3.2300e-01	6.4575	3.408387	0.000205	2.050887	0.347430	0.004105
 648	3.2350e-01	6.4667	3.437466	0.000291	2.905423	0.492192	0.005816
 649	3.2400e-01	6.4740	3.441742	0.000043	0.427268	0.072381	0.000855
 650	3.2450e-01	6.4865	3.462268	0.000205	2.050887	0.347430	0.004105
 651	3.2500e-01	6.4960	3.485360	0.000231	2.307247	0.390858	0.004618
 652	3.2550e-01	6.5051	3.495195	0.000098	0.982716	0.166477	0.001967
 653	3.2600e-01	6.5149	3.519570	0.000244	2.435428	0.412573	0.004875
 654	3.2650e-01	6.5253	3.531971	0.000124	1.239077	0.209905	0.002480
 655	3.2700e-01	6.5396	3.552497	0.000205	2.050887	0.347430	0.004105
 656	3.2750e-01	6.5448	3.565326	0.000128	1.281804	0.217143	0.002566
 657	3.2800e-01	6.5558	3.595259	0.000299	2.990876	0.506668	0.005987
 658	3.2850e-01	6.5643	3.612365	0.000171	1.709072	0.289525	0.003421
 659	3.2900e-01	6.5759	3.618779	0.000064	0.640902	0.108572	0.001283
 660	3.2950e-01	6.5854	3.638022	0.000192	1.922706	0.325715	0.003849
 661	3.3000e-01	6.5948	3.669666	0.000316	3.161783	0.535621	0.006329
 662	3.3050e-01	6.6061	3.673943	0.000043	0.427268	0.072381	0.000855
 663	3.3100e-01	6.6168	3.703021	0.000291	2.905423	0.492192	0.005816
 664	3.3150e-01	6.6260	3.717560	0.000145	1.452711	0.246096	0.002908
 665	3.3200e-01	6.6359	3.725685	0.000081	0.811809	0.137524	0.001625
 666	3.3250e-01	6.6467	3.758185	0.000325	3.247237	0.550097	0.006500
 667	3.3300e-01	6.6583	3.764599	0.000064	0.640902	0.108572	0.001283
 668	3.3350e-01	6.6675	3.788118	0.000235	2.349974	0.398096	0.004704
 669	3.3400e-01	6.6757	3.821901	0.000338	3.375417	0.571811	0.006756
 670	3.3450e-01	6.6846	3.825322	0.000034	0.341814	0.057905	0.000684
 671	3.3500e-01	6.6962	3.847986	0.000226	2.264521	0.383620	0.004533
 672	3.3550e-01	6.7059	3.857394	0.000094	0.939990	0.159239	0.001882
 673	3.3600e-01	6.7181	3.882624	0.000252	2.520881	0.427049	0.005046
 674	3.3650e-01	6.7285	3.891176	0.000085	0.854536	0.144762	0.001711
 675	3.3700e-01	6.7365	3.921538	0.000303	3.033603	0.513906	0.006072
 676	3.3750e-01	6.7468	3.927097	0.000056	0.555448	0.094096	0.001112
 677	3.3800e-01	6.7566	3.945912	0.000188	1.879979	0.318477	0.003763
 678	3.3850e-01	6.7676	3.969004	0.000231	2.307247	0.390858	0.004618
 679	3.3900e-01	6.7755	4.002786	0.000338	3.375417	0.571811	0.006756
 680	3.3950e-01	6.7841	4.007063	0.000043	0.427268	0.072381	0.000855
 681	3.4000e-01	6.7963	4.024168	0.000171	1.709072	0.289525	0.003421
 682	3.4050e-01	6.8091	4.028444	0.000043	0.427268	0.072381	0.000855
 683	3.4100e-01	6.8164	4.051963	0.000235	2.349974	0.398096	0.004704
 684	3.4150e-01	6.8286	4.076766	0.000248	2.478155	0.419811	0.004960
 685	3.4200e-01	6.8372	4.100713	0.000239	2.392701	0.405335	0.004789
 686	3.4250e-01	6.8478	4.107982	0.000073	0.726356	0.123048	0.001454
 687	3.4300e-01	6.8561	4.128081	0.000201	2.008160	0.340191	0.004020
 688	3.4350e-01	6.8695	4.153310	0.000252	2.520881	0.427049	0.005046
 689	3.4400e-01	6.8774	4.158014	0.000047	0.469995	0.079619	0.000941
 690	3.4450e-01	6.8854	4.187093	0.000291	2.905423	0.492192	0.005816
 691	3.4500e-01	6.8945	4.209757	0.000226	2.264521	0.383620	0.004533
 692	3.4550e-01	6.9073	4.217882	0.000081	0.811809	0.137524	0.001625
 693	3.4600e-01	6.9165	4.233276	0.000154	1.538165	0.260572	0.003079
 694	3.4650e-01	6.9287	4.256796	0.000235	2.349974	0.398096	0.004704
 695	3.4700e-01	6.9385	4.273046	0.000162	1.623619	0.275048	0.003250
 696	3.4750e-01	6.9489	4.293572	0.000205	2.050887	0.347430	0.004105
 697	3.4800e-01	6.9589	4.308538	0.000150	1.495438	0.253334	0.002993
 698	3.4850e-01	6.9684	4.319657	0.000111	1.110897	0.188191	0.002224
 699	3.4900e-01	6.9807	4.341038	0.000214	2.136340	0.361906	0.004276
 700	3.4950e-01	6.9867	4.352584	0.000115	1.153624	0.195429	0.002309
 701	3.5000e-01	6.9968	4.374393	0.000218	2.179067	0.369144	0.004362
 702	3.5050e-01	7.0093	4.403471	0.000291	2.905423	0.492192	0.005816
 703	3.5100e-01	7.0175	4.408603	0.000051	0.512722	0.086857	0.001026
 704	3.5150e-01	7.0264	4.429129	0.000205	2.050887	0.347430	0.004105
 705	3.5200e-01	7.0349	4.449227	0.000201	2.008160	0.340191	0.004020
 706	3.5250e-01	7.0465	4.466760	0.000175	1.751799	0.296763	0.003507
 707	3.5300e-01	7.0563	4.488569	0.000218	2.179067	0.369144	0.004362
 708	3.5350e-01	7.0667	4.517220	0.000286	2.862696	0.484954	0.005730
 709	3.5400e-01	7.0752	4.521496	0.000043	0.427268	0.072381	0.000855
 710	3.5450e-01	7.0874	4.539456	0.000179	1.794526	0.304001	0.003592
 711	3.5500e-01	7.0967	4.562120	0.000226	2.264521	0.383620	0.004533
 712	3.5550e-01	7.1082	4.577515	0.000154	1.538165	0.260572	0.003079
 713	3.5600e-01	7.1167	4.597186	0.000197	1.965433	0.332953	0.003934
 714	3.5650e-01	7.1271	4.599324	0.000021	0.213634	0.036191	0.000428
 715	3.5700e-01	7.1381	4.624126	0.000248	2.478155	0.419811	0.004960
 716	3.5750e-01	7.1469	4.652349	0.000282	2.819969	0.477716	0.005645
 717	3.5800e-01	7.1600	4.669027	0.000167	1.666345	0.282287	0.003335
 718	3.5850e-01	7.1671	4.684849	0.000158	1.580892	0.267810	0.003164
 719	3.5900e-01	7.1742	4.699816	0.000150	1.495438	0.253334	0.002993
 720	3.5950e-01	7.1864	4.713927	0.000141	1.409985	0.238858	0.002822
 721	3.6000e-01	7.1960	4.733598	0.000197	1.965433	0.332953	0.003934
 722	3.6050e-01	7.2076	4.744716	0.000111	1.110897	0.188191	0.002224
 723	3.6100e-01	7.2186	4.767808	0.000231	2.307247	0.390858	0.004618
 724	3.6150e-01	7.2272	4.791327	0.000235	2.349974	0.398096	0.004704
 725	3.6200e-01	7.2388	4.798169	0.000068	0.683629	0.115810	0.001368
 726	3.6250e-01	7.2473	4.817413	0.000192	1.922706	0.325715	0.003849
 727	3.6300e-01	7.2540	4.850767	0.000333	3.332691	0.564573	0.006671
 728	3.6350e-01	7.2675	4.866162	0.000154	1.538165	0.260572	0.003079
 729	3.6400e-01	7.2815	4.877708	0.000115	1.153624	0.195429	0.002309
 730	3.6450e-01	7.2876	4.893530	0.000158	1.580892	0.267810	0.003164
 731	3.6500e-01	7.2957	4.916194	0.000226	2.264521	0.383620	0.004533
 732	3.6550e-01	7.3065	4.935865	0.000197	1.965433	0.332953	0.003934
 733	3.6600e-01	7.3143	4.944417	0.000085	0.854536	0.144762	0.001711
 734	3.6650e-01	7.3260	4.959384	0.000150	1.495438	0.253334	0.002993
 735	3.6700e-01	7.3395	4.984614	0.000252	2.520881	0.427049	0.005046
 736	3.6750e-01	7.3444	4.996588	0.000120	1.196350	0.202667	0.002395
 737	3.6800e-01	7.3547	5.012410	0.000158	1.580892	0.267810	0.003164
 738	3.6850e-01	7.3676	5.034646	0.000222	2.221794	0.376382	0.004447
 739	3.6900e-01	7.3749	5.050041	0.000154	1.538165	0.260572	0.003079
 740	3.6950e-01	7.3859	5.083395	0.000333	3.332691	0.564573	0.006671
 741	3.7000e-01	7.3987	5.081257	-0.000021	-0.213634	-0.036191	-0.000428
 742	3.7050e-01	7.4072	5.109908	0.000286	2.862696	0.484954	0.005730
 743	3.7100e-01	7.4170	5.123592	0.000137	1.367258	0.231620	0.002737
 744	3.7150e-01	7.4280	5.135993	0.000124	1.239077	0.209905	0.002480
 745	3.7200e-01	7.4390	5.156519	0.000205	2.050887	0.347430	0.004105
 746	3.7250e-01	7.4460	5.168493	0.000120	1.196350	0.202667	0.002395
 747	3.7300e-01	7.4585	5.195861	0.000273	2.734515	0.463239	0.005474
 748	3.7350e-01	7.4649	5.211255	0.000154	1.538165	0.260572	0.003079
 749	3.7400e-01	7.4756	5.235202	0.000239	2.392701	0.405335	0.004789
 750	3.7450e-01	7.4866	5.252735	0.000175	1.751799	0.296763	0.003507
 751	3.7500e-01	7.4976	5.262998	0.000103	1.025443	0.173715	0.002053
 752	3.7550e-01	7.5079	5.270695	0.000077	0.769082	0.130286	0.001539
 753	3.7600e-01	7.5171	5.294642	0.000239	2.392701	0.405335	0.004789
 754	3.7650e-01	7.5256	5.324148	0.000295	2.948149	0.499430	0.005901
 755	3.7700e-01	7.5354	5.333556	0.000094	0.939990	0.159239	0.001882
 756	3.7750e-01	7.5476	5.361780	0.000282	2.819969	0.477716	0.005645
 757	3.7800e-01	7.5568	5.362635	0.000009	0.085454	0.014476	0.000171
 758	3.7850e-01	7.5696	5.368622	0.000060	0.598175	0.101334	0.001197
 759	3.7900e-01	7.5751	5.398555	0.000299	2.990876	0.506668	0.005987
 760	3.7950e-01	7.5848	5.426779	0.000282	2.819969	0.477716	0.005645
 761	3.8000e-01	7.5952	5.443456	0.000167	1.666345	0.282287	0.003335
 762	3.8050e-01	7.6056	5.462699	0.000192	1.922706	0.325715	0.003849
 763	3.8100e-01	7.6166	5.472962	0.000103	1.025443	0.173715	0.002053
 764	3.8150e-01	7.6257	5.490067	0.000171	1.709072	0.289525	0.003421
 765	3.8200e-01	7.6361	5.514442	0.000244	2.435428	0.412573	0.004875
 766	3.8250e-01	7.6471	5.530264	0.000158	1.580892	0.267810	0.003164
 767	3.8300e-01	7.6556	5.546514	0.000162	1.623619	0.275048	0.003250
 768	3.8350e-01	7.6660	5.564474	0.000179	1.794526	0.304001	0.003592
 769	3.8400e-01	7.6752	5.579013	0.000145	1.452711	0.246096	0.002908
 770	3.8450e-01	7.6892	5.596546	0.000175	1.751799	0.296763	0.003507
 771	3.8500e-01	7.6953	5.614934	0.000184	1.837253	0.311239	0.003678
 772	3.8550e-01	7.7081	5.625624	0.000107	1.068170	0.180953	0.002138
 773	3.8600e-01	7.7185	5.649999	0.000244	2.435428	0.412573	0.004875
 774	3.8650e-01	7.7225	5.679505	0.000295	2.948149	0.499430	0.005901
 775	3.8700e-01	7.7380	5.688058	0.000085	0.854536	0.144762	0.001711
 776	3.8750e-01	7.7496	5.703024	0.000150	1.495438	0.253334	0.002993
 777	3.8800e-01	7.7591	5.732103	0.000291	2.905423	0.492192	0.005816
 778	3.8850e-01	7.7667	5.740228	0.000081	0.811809	0.137524	0.001625
 779	3.8900e-01	7.7777	5.762464	0.000222	2.221794	0.376382	0.004447
 780	3.8950e-01	7.7869	5.771017	0.000085	0.854536	0.144762	0.001711
 781	3.9000e-01	7.7954	5.794964	0.000239	2.392701	0.405335	0.004789
 782	3.9050e-01	7.8076	5.815062	0.000201	2.008160	0.340191	0.004020
 783	3.9100e-01	7.8152	5.834733	0.000197	1.965433	0.332953	0.003934
 784	3.9150e-01	7.8271	5.833878	-0.000009	-0.085454	-0.014476	-0.000171
 785	3.9200e-01	7.8357	5.860391	0.000265	2.649062	0.448763	0.005303
 786	3.9250e-01	7.8461	5.878778	0.000184	1.837253	0.311239	0.003678
 787	3.9300e-01	7.8571	5.890752	0.000120	1.196350	0.202667	0.002395
 788	3.9350e-01	7.8668	5.909567	0.000188	1.879979	0.318477	0.003763
 789	3.9400e-01	7.8772	5.934797	0.000252	2.520881	0.427049	0.005046
 790	3.9450e-01	7.8931	5.958744	0.000239	2.392701	0.405335	0.004789
 791	3.9500e-01	7.8937	5.960027	0.000013	0.128180	0.021714	0.000257
 792	3.9550e-01	7.9059	5.982264	0.000222	2.221794	0.376382	0.004447
 793	3.9600e-01	7.9214	5.997231	0.000150	1.495438	0.253334	0.002993
 794	3.9650e-01	7.9254	6.009204	0.000120	1.196350	0.202667	0.002395
 795	3.9700e-01	7.9358	6.038710	0.000295	2.948149	0.499430	0.005901
 796	3.9750e-01	7.9486	6.056243	0.000175	1.751799	0.296763	0.003507
 797	3.9800e-01	7.9572	6.067789	0.000115	1.153624	0.195429	0.002309
 798	3.9850e-01	7.9654	6.097723	0.000299	2.990876	0.506668	0.005987
 799	3.9900e-01	7.9779	6.113972	0.000162	1.623619	0.275048	0.003250
 800	3.9950e-01	7.9871	6.121242	0.000073	0.726356	0.123048	0.001454
 801	4.0000e-01	7.9974	6.140913	0.000197	1.965433	0.332953	0.003934
 802	4.0050e-01	8.0066	6.150321	0.000094	0.939990	0.159239	0.001882
 803	4.0100e-01	8.0145	6.176406	0.000261	2.606335	0.441525	0.005217
 804	4.0150e-01	8.0231	6.205057	0.000286	2.862696	0.484954	0.005730
 805	4.0200e-01	8.0359	6.216175	0.000111	1.110897	0.188191	0.002224
 806	4.0250e-01	8.0469	6.237128	0.000209	2.093613	0.354668	0.004191
 807	4.0300e-01	8.0566	6.231569	-0.000056	-0.555448	-0.094096	-0.001112
 808	4.0350e-01	8.0658	6.259793	0.000282	2.819969	0.477716	0.005645
 809	4.0400e-01	8.0762	6.283312	0.000235	2.349974	0.398096	0.004704
 810	4.0450e-01	8.0841	6.294858	0.000115	1.153624	0.195429	0.002309
 811	4.0500e-01	8.0960	6.303410	0.000085	0.854536	0.144762	0.001711
 812	4.0550e-01	8.1061	6.336765	0.000333	3.332691	0.564573	0.006671
 813	4.0600e-01	8.1161	6.340186	0.000034	0.341814	0.057905	0.000684
 814	4.0650e-01	8.1274	6.367554	0.000273	2.734515	0.463239	0.005474
 815	4.0700e-01	8.1384	6.375679	0.000081	0.811809	0.137524	0.001625
 816	4.0750e-01	8.1451	6.402192	0.000265	2.649062	0.448763	0.005303
 817	4.0800e-01	8.1555	6.425284	0.000231	2.307247	0.390858	0.004618
 818	4.0850e-01	8.1680	6.442816	0.000175	1.751799	0.296763	0.003507
 819	4.0900e-01	8.1763	6.450941	0.000081	0.811809	0.137524	0.001625
 820	4.0950e-01	8.1866	6.464197	0.000132	1.324531	0.224382	0.002651
 821	4.1000e-01	8.1952	6.480020	0.000158	1.580892	0.267810	0.003164
 822	4.1050e-01	8.2062	6.515085	0.000350	3.503598	0.593526	0.007013
 823	4.1100e-01	8.2141	6.524920	0.000098	0.982716	0.166477	0.001967
 824	4.1150e-01	8.2263	6.536039	0.000111	1.110897	0.188191	0.002224
 825	4.1200e-01	8.2373	6.548440	0.000124	1.239077	0.209905	0.002480
 826	4.1250e-01	8.2446	6.580939	0.000325	3.247237	0.550097	0.006500
 827	4.1300e-01	8.2544	6.602320	0.000214	2.136340	0.361906	0.004276
 828	4.1350e-01	8.2654	6.617287	0.000150	1.495438	0.253334	0.002993
 829	4.1400e-01	8.2758	6.618570	0.000013	0.128180	0.021714	0.000257
 830	4.1450e-01	8.2861	6.642090	0.000235	2.349974	0.398096	0.004704
 831	4.1500e-01	8.2959	6.666892	0.000248	2.478155	0.419811	0.004960
 832	4.1550e-01	8.3051	6.663043	-0.000038	-0.384541	-0.065143	-0.000770
 833	4.1600e-01	8.3154	6.691694	0.000286	2.862696	0.484954	0.005730
 834	4.1650e-01	8.3267	6.711792	0.000201	2.008160	0.340191	0.004020
 835	4.1700e-01	8.3350	6.731463	0.000197	1.965433	0.332953	0.003934
 836	4.1750e-01	8.3459	6.744720	0.000132	1.324531	0.224382	0.002651
 837	4.1800e-01	8.3560	6.764818	0.000201	2.008160	0.340191	0.004020
 838	4.1850e-01	8.3643	6.795607	0.000308	3.076330	0.521144	0.006158
 839	4.1900e-01	8.3783	6.803732	0.000081	0.811809	0.137524	0.001625
 840	4.1950e-01	8.3875	6.812712	0.000090	0.897263	0.152000	0.001796
 841	4.2000e-01	8.3966	6.836659	0.000239	2.392701	0.405335	0.004789
 842	4.2050e-01	8.4064	6.863599	0.000269	2.691789	0.456001	0.005388
 843	4.2100e-01	8.4171	6.861034	-0.000026	-0.256361	-0.043429	-0.000513
 844	4.2150e-01	8.4250	6.893961	0.000329	3.289964	0.557335	0.006585
 845	4.2200e-01	8.4375	6.904224	0.000103	1.025443	0.173715	0.002053
 846	4.2250e-01	8.4448	6.923039	0.000188	1.879979	0.318477	0.003763
 847	4.2300e-01	8.4567	6.935013	0.000120	1.196350	0.202667	0.002395
 848	4.2350e-01	8.4668	6.949980	0.000150	1.495438	0.253334	0.002993
 849	4.2400e-01	8.4778	6.960670	0.000107	1.068170	0.180953	0.002138
 850	4.2450e-01	8.4869	6.987611	0.000269	2.691789	0.456001	0.005388
 851	4.2500e-01	8.4973	7.004288	0.000167	1.666345	0.282287	0.003335
 852	4.2550e-01	8.5059	7.014551	0.000103	1.025443	0.173715	0.002053
 853	4.2600e-01	8.5156	7.040209	0.000256	2.563608	0.434287	0.005132
 854	4.2650e-01	8.5242	7.060307	0.000201	2.008160	0.340191	0.004020
 855	4.2700e-01	8.5364	7.079123	0.000188	1.879979	0.318477	0.003763
 856	4.2750e-01	8.5455	7.094517	0.000154	1.538165	0.260572	0.003079
 857	4.2800e-01	8.5583	7.109912	0.000154	1.538165	0.260572	0.003079
 858	4.2850e-01	8.5669	7.118037	0.000081	0.811809	0.137524	0.001625
 859	4.2900e-01	8.5760	7.142839	0.000248	2.478155	0.419811	0.004960
 860	4.2950e-01	8.5840	7.167213	0.000244	2.435428	0.412573	0.004875
 861	4.3000e-01	8.5986	7.172345	0.000051	0.512722	0.086857	0.001026
 862	4.3050e-01	8.6047	7.191588	0.000192	1.922706	0.325715	0.003849
 863	4.3100e-01	8.6182	7.221949	0.000303	3.033603	0.513906	0.006072
 864	4.3150e-01	8.6243	7.227936	0.000060	0.598175	0.101334	0.001197
 865	4.3200e-01	8.6365	7.242903	0.000150	1.495438	0.253334	0.002993
 866	4.3250e-01	8.6462	7.267278	0.000244	2.435428	0.412573	0.004875
 867	4.3300e-01	8.6597	7.286948	0.000197	1.965433	0.332953	0.003934
 868	4.3350e-01	8.6682	7.290797	0.000038	0.384541	0.065143	0.000770
 869	4.3400e-01	8.6774	7.319448	0.000286	2.862696	0.484954	0.005730
 870	4.3450e-01	8.6859	7.328001	0.000085	0.854536	0.144762	0.001711
 871	4.3500e-01	8.6987	7.339546	0.000115	1.153624	0.195429	0.002309
 872	4.3550e-01	8.7054	7.360928	0.000214	2.136340	0.361906	0.004276
 873	4.3600e-01	8.7164	7.375039	0.000141	1.409985	0.238858	0.002822
 874	4.3650e-01	8.7271	7.392572	0.000175	1.751799	0.296763	0.003507
 875	4.3700e-01	8.7384	7.415664	0.000231	2.307247	0.390858	0.004618
 876	4.3750e-01	8.7430	7.435762	0.000201	2.008160	0.340191	0.004020
 877	4.3800e-01	8.7555	7.460992	0.000252	2.520881	0.427049	0.005046
 878	4.3850e-01	8.7665	7.471255	0.000103	1.025443	0.173715	0.002053
 879	4.3900e-01	8.7775	7.485794	0.000145	1.452711	0.246096	0.002908
 880	4.3950e-01	8.7863	7.511452	0.000256	2.563608	0.434287	0.005132
 881	4.4000e-01	8.7964	7.525563	0.000141	1.409985	0.238858	0.002822
 882	4.4050e-01	8.8055	7.526419	0.000009	0.085454	0.014476	0.000171
 883	4.4100e-01	8.8162	7.561484	0.000350	3.503598	0.593526	0.007013
 884	4.4150e-01	8.8287	7.558918	-0.000026	-0.256361	-0.043429	-0.000513
 885	4.4200e-01	8.8367	7.585431	0.000265	2.649062	0.448763	0.005303
 886	4.4250e-01	8.8446	7.611944	0.000265	2.649062	0.448763	0.005303
 887	4.4300e-01	8.8568	7.625628	0.000137	1.367258	0.231620	0.002737
 888	4.4350e-01	8.8635	7.656844	0.000312	3.119057	0.528382	0.006243
 889	4.4400e-01	8.8763	7.664542	0.000077	0.769082	0.130286	0.001539
 890	4.4450e-01	8.8837	7.695758	0.000312	3.119057	0.528382	0.006243
 891	4.4500e-01	8.8959	7.700890	0.000051	0.512722	0.086857	0.001026
 892	4.4550e-01	8.9044	7.712008	0.000111	1.110897	0.188191	0.002224
 893	4.4600e-01	8.9166	7.725692	0.000137	1.367258	0.231620	0.002737
 894	4.4650e-01	8.9294	7.730396	0.000047	0.469995	0.079619	0.000941
 895	4.4700e-01	8.9343	7.761613	0.000312	3.119057	0.528382	0.006243
 896	4.4750e-01	8.9450	7.779573	0.000179	1.794526	0.304001	0.003592
 897	4.4800e-01	8.9532	7.816349	0.000367	3.674505	0.622478	0.007355
 898	4.4850e-01	8.9728	7.812500	-0.000038	-0.384541	-0.065143	-0.000770
 899	4.4900e-01	8.9746	7.819342	0.000068	0.683629	0.115810	0.001368
 900	4.4950e-01	8.9886	7.828322	0.000090	0.897263	0.152000	0.001796
 901	4.5000e-01	8.9948	7.851414	0.000231	2.307247	0.390858	0.004618
 902	4.5050e-01	9.0051	7.880492	0.000291	2.905423	0.492192	0.005816
 903	4.5100e-01	9.0179	7.903584	0.000231	2.307247	0.390858	0.004618
 904	4.5150e-01	9.0259	7.898880	-0.000047	-0.469995	-0.079619	-0.000941
 905	4.5200e-01	9.0381	7.926676	0.000278	2.777242	0.470478	0.005559
 906	4.5250e-01	9.0503	7.945491	0.000188	1.879979	0.318477	0.003763
 907	4.5300e-01	9.0576	7.957465	0.000120	1.196350	0.202667	0.002395
 908	4.5350e-01	9.0688	7.969438	0.000120	1.196350	0.202667	0.002395
 909	4.5400e-01	9.0784	8.001510	0.000320	3.204510	0.542859	0.006414
 910	4.5450e-01	9.0875	8.011346	0.000098	0.982716	0.166477	0.001967
 911	4.5500e-01	9.0973	8.046411	0.000350	3.503598	0.593526	0.007013
 912	4.5550e-01	9.1083	8.059667	0.000132	1.324531	0.224382	0.002651
 913	4.5600e-01	9.1162	8.065226	0.000056	0.555448	0.094096	0.001112
 914	4.5650e-01	9.1260	8.081049	0.000158	1.580892	0.267810	0.003164
 915	4.5700e-01	9.1406	8.101147	0.000201	2.008160	0.340191	0.004020
 916	4.5750e-01	9.1461	8.124239	0.000231	2.307247	0.390858	0.004618
 917	4.5800e-01	9.1568	8.146048	0.000218	2.179067	0.369144	0.004362
 918	4.5850e-01	9.1675	8.143482	-0.000026	-0.256361	-0.043429	-0.000513
 919	4.5900e-01	9.1772	8.172560	0.000291	2.905423	0.492192	0.005816
 920	4.5950e-01	9.1852	8.180258	0.000077	0.769082	0.130286	0.001539
 921	4.6000e-01	9.1937	8.214040	0.000338	3.375417	0.571811	0.006756
 922	4.6050e-01	9.2078	8.226014	0.000120	1.196350	0.202667	0.002395
 923	4.6100e-01	9.2163	8.235421	0.000094	0.939990	0.159239	0.001882
 924	4.6150e-01	9.2245	8.263217	0.000278	2.777242	0.470478	0.005559
 925	4.6200e-01	9.2377	8.274763	0.000115	1.153624	0.195429	0.002309
 926	4.6250e-01	9.2470	8.288875	0.000141	1.409985	0.238858	0.002822
 927	4.6300e-01	9.2566	8.308118	0.000192	1.922706	0.325715	0.003849
 928	4.6350e-01	9.2664	8.328644	0.000205	2.050887	0.347430	0.004105
 929	4.6400e-01	9.2780	8.338051	0.000094	0.939990	0.159239	0.001882
 930	4.6450e-01	9.2859	8.351308	0.000132	1.324531	0.224382	0.002651
 931	4.6500e-01	9.2938	8.381669	0.000303	3.033603	0.513906	0.006072
 932	4.6550e-01	9.3060	8.388939	0.000073	0.726356	0.123048	0.001454
 933	4.6600e-01	9.3158	8.417590	0.000286	2.862696	0.484954	0.005730
 934	4.6650e-01	9.3274	8.420583	0.000030	0.299088	0.050667	0.000599
 935	4.6700e-01	9.3372	8.447951	0.000273	2.734515	0.463239	0.005474
 936	4.6750e-01	9.3463	8.459069	0.000111	1.110897	0.188191	0.002224
 937	4.6800e-01	9.3558	8.476174	0.000171	1.709072	0.289525	0.003421
 938	4.6850e-01	9.3665	8.500977	0.000248	2.478155	0.419811	0.004960
 939	4.6900e-01	9.3750	8.529628	0.000286	2.862696	0.484954	0.005730
 940	4.6950e-01	9.3854	8.522786	-0.000068	-0.683629	-0.115810	-0.001368
 941	4.7000e-01	9.3945	8.539891	0.000171	1.709072	0.289525	0.003421
 942	4.7050e-01	9.4067	8.566403	0.000265	2.649062	0.448763	0.005303
 943	4.7100e-01	9.4159	8.577949	0.000115	1.153624	0.195429	0.002309
 944	4.7150e-01	9.4252	8.589923	0.000120	1.196350	0.202667	0.002395
 945	4.7200e-01	9.4360	8.611304	0.000214	2.136340	0.361906	0.004276
 946	4.7250e-01	9.4489	8.627126	0.000158	1.580892	0.267810	0.003164
 947	4.7300e-01	9.4568	8.652356	0.000252	2.520881	0.427049	0.005046
 948	4.7350e-01	9.4656	8.673737	0.000214	2.136340	0.361906	0.004276
 949	4.7400e-01	9.4775	8.688277	0.000145	1.452711	0.246096	0.002908
 950	4.7450e-01	9.4864	8.704526	0.000162	1.623619	0.275048	0.003250
 951	4.7500e-01	9.4952	8.712651	0.000081	0.811809	0.137524	0.001625
 952	4.7550e-01	9.5056	8.736598	0.000239	2.392701	0.405335	0.004789
 953	4.7600e-01	9.5172	8.754986	0.000184	1.837253	0.311239	0.003678
 954	4.7650e-01	9.5258	8.757552	0.000026	0.256361	0.043429	0.000513
 955	4.7700e-01	9.5343	8.786203	0.000286	2.862696	0.484954	0.005730
 956	4.7750e-01	9.5459	8.811860	0.000256	2.563608	0.434287	0.005132
 957	4.7800e-01	9.5557	8.829393	0.000175	1.751799	0.296763	0.003507
 958	4.7850e-01	9.5660	8.847781	0.000184	1.837253	0.311239	0.003678
 959	4.7900e-01	9.5764	8.852912	0.000051	0.512722	0.086857	0.001026
 960	4.7950e-01	9.5850	8.868734	0.000158	1.580892	0.267810	0.003164
 961	4.8000e-01	9.5947	8.886267	0.000175	1.751799	0.296763	0.003507
 962	4.8050e-01	9.6075	8.913635	0.000273	2.734515	0.463239	0.005474
 963	4.8100e-01	9.6173	8.931168	0.000175	1.751799	0.296763	0.003507
 964	4.8150e-01	9.6271	8.943141	0.000120	1.196350	0.202667	0.002395
 965	4.8200e-01	9.6271	8.935872	0.000073	0.726356	0.123048	-0.001454
 966	4.8250e-01	9.6448	8.985048	0.000491	4.913582	0.832383	0.009835
 967	4.8300e-01	9.6552	8.997450	0.000124	1.239077	0.209905	0.002480
 968	4.8350e-01	9.6667	9.006002	0.000085	0.854536	0.144762	0.001711
 969	4.8400e-01	9.6771	9.014982	0.000090	0.897263	0.152000	0.001796
 970	4.8450e-01	9.6875	9.036363	0.000214	2.136340	0.361906	0.004276
 971	4.8500e-01	9.6954	9.062021	0.000256	2.563608	0.434287	0.005132
 972	4.8550e-01	9.7058	9.092382	0.000303	3.033603	0.513906	0.006072
 973	4.8600e-01	9.7125	9.109915	0.000175	1.751799	0.296763	0.003507
 974	4.8650e-01	9.7266	9.109915	0.000000	0.000000	0.000000	0.000000
 975	4.8700e-01	9.7363	9.128731	0.000188	1.879979	0.318477	0.003763
 976	4.8750e-01	9.7455	9.150112	0.000214	2.136340	0.361906	0.004276
 977	4.8800e-01	9.7546	9.163368	0.000132	1.324531	0.224382	0.002651
 978	4.8850e-01	9.7626	9.185605	0.000222	2.221794	0.376382	0.004447
 979	4.8900e-01	9.7729	9.205703	0.000201	2.008160	0.340191	0.004020
 980	4.8950e-01	9.7858	9.217677	0.000120	1.196350	0.202667	0.002395
 981	4.9000e-01	9.7968	9.232216	0.000145	1.452711	0.246096	0.002908
 982	4.9050e-01	9.8047	9.250176	0.000179	1.794526	0.304001	0.003592
 983	4.9100e-01	9.8169	9.269847	0.000197	1.965433	0.332953	0.003934
 984	4.9150e-01	9.8239	9.289090	0.000192	1.922706	0.325715	0.003849
 985	4.9200e-01	9.8389	9.295932	0.000068	0.683629	0.115810	0.001368
 986	4.9250e-01	9.8474	9.310471	0.000145	1.452711	0.246096	0.002908
 987	4.9300e-01	9.8578	9.333991	0.000235	2.349974	0.398096	0.004704
 988	4.9350e-01	9.8666	9.349813	0.000158	1.580892	0.267810	0.003164
 989	4.9400e-01	9.8755	9.379319	0.000295	2.948149	0.499430	0.005901
 990	4.9450e-01	9.8866	9.377608	-0.000017	-0.170907	-0.028952	-0.000342
 991	4.9500e-01	9.8962	9.405404	0.000278	2.777242	0.470478	0.005559
 992	4.9550e-01	9.9066	9.437904	0.000325	3.247237	0.550097	0.006500
 993	4.9600e-01	9.9146	9.437904	0.000000	0.000000	0.000000	0.000000
 994	4.9650e-01	9.9261	9.455009	0.000171	1.709072	0.289525	0.003421
 995	4.9700e-01	9.9365	9.454153	-0.000009	-0.085454	-0.014476	-0.000171
 996	4.9750e-01	9.9457	9.478528	0.000244	2.435428	0.412573	0.004875
 997	4.9800e-01	9.9548	9.516587	0.000380	3.802685	0.644192	0.007612
 998	4.9850e-01	9.9658	9.521718	0.000051	0.512722	0.086857	0.001026
 999	4.9900e-01	9.9756	9.545665	0.000239	2.392701	0.405335	0.004789
1000	4.9950e-01	9.9854	9.552935	0.000073	0.726356	0.123048	0.001454
1001	5.0000e-01	9.9969	9.589711	0.000367	3.674505	0.622478	0.007355
1002	5.0050e-01	9.9854	9.557639	0.000320	3.204510	0.542859	-0.006414
1003	5.0100e-01	9.9780	9.526422	0.000312	3.119057	0.528382	-0.006243
1004	5.0150e-01	9.9658	9.519152	0.000073	0.726356	0.123048	-0.001454
1005	5.0200e-01	9.9573	9.506751	0.000124	1.239077	0.209905	-0.002480
1006	5.0250e-01	9.9432	9.509317	-0.000026	-0.256361	-0.043429	0.000513
1007	5.0300e-01	9.9371	9.482377	0.000269	2.691789	0.456001	-0.005388
1008	5.0350e-01	9.9249	9.480666	0.000017	0.170907	0.028952	-0.000342
1009	5.0400e-01	9.9164	9.467410	0.000132	1.324531	0.224382	-0.002651
1010	5.0450e-01	9.9036	9.452443	0.000150	1.495438	0.253334	-0.002993
1011	5.0500e-01	9.8984	9.431489	0.000209	2.093613	0.354668	-0.004191
1012	5.0550e-01	9.8859	9.421654	0.000098	0.982716	0.166477	-0.001967
1013	5.0600e-01	9.8743	9.404121	0.000175	1.751799	0.296763	-0.003507
1014	5.0650e-01	9.8657	9.397279	0.000068	0.683629	0.115810	-0.001368
1015	5.0700e-01	9.8572	9.376753	0.000205	2.050887	0.347430	-0.004105
1016	5.0750e-01	9.8462	9.365635	0.000111	1.110897	0.188191	-0.002224
1017	5.0800e-01	9.8364	9.353661	0.000120	1.196350	0.202667	-0.002395
1018	5.0850e-01	9.8260	9.333135	0.000205	2.050887	0.347430	-0.004105
1019	5.0900e-01	9.8175	9.321590	0.000115	1.153624	0.195429	-0.002309
1020	5.0950e-01	9.8056	9.304057	0.000175	1.751799	0.296763	-0.003507
1021	5.1000e-01	9.7974	9.297643	0.000064	0.640902	0.108572	-0.001283
1022	5.1050e-01	9.7864	9.261722	0.000359	3.589051	0.608002	-0.007184
1023	5.1100e-01	9.7760	9.261722	-0.000000	-0.000000	-0.000000	0.000000
1024	5.1150e-01	9.7656	9.257018	0.000047	0.469995	0.079619	-0.000941
1025	5.1200e-01	9.7565	9.238630	0.000184	1.837253	0.311239	-0.003678
1026	5.1250e-01	9.7464	9.218104	0.000205	2.050887	0.347430	-0.004105
1027	5.1300e-01	9.7339	9.204420	0.000137	1.367258	0.231620	-0.002737
1028	5.1350e-01	9.7253	9.177480	0.000269	2.691789	0.456001	-0.005388
1029	5.1400e-01	9.7162	9.183039	-0.000056	-0.555448	-0.094096	0.001112
1030	5.1450e-01	9.7064	9.158237	0.000248	2.478155	0.419811	-0.004960
1031	5.1500e-01	9.6927	9.131724	0.000265	2.649062	0.448763	-0.005303
1032	5.1550e-01	9.6912	9.128731	0.000030	0.299088	0.050667	-0.000599
1033	5.1600e-01	9.6759	9.098369	0.000303	3.033603	0.513906	-0.006072
1034	5.1650e-01	9.6667	9.109060	-0.000107	-1.068170	-0.180953	0.002138
1035	5.1700e-01	9.6594	9.099224	0.000098	0.982716	0.166477	-0.001967
1036	5.1750e-01	9.6472	9.068863	0.000303	3.033603	0.513906	-0.006072
1037	5.1800e-01	9.6356	9.052186	0.000167	1.666345	0.282287	-0.003335
1038	5.1850e-01	9.6252	9.039784	0.000124	1.239077	0.209905	-0.002480
1039	5.1900e-01	9.6161	9.040640	-0.000009	-0.085454	-0.014476	0.000171
1040	5.1950e-01	9.6069	9.022252	0.000184	1.837253	0.311239	-0.003678
1041	5.2000e-01	9.5975	9.000871	0.000214	2.136340	0.361906	-0.004276
1042	5.2050e-01	9.5862	8.981200	0.000197	1.965433	0.332953	-0.003934
1043	5.2100e-01	9.5770	8.954259	0.000269	2.691789	0.456001	-0.005388
1044	5.2150e-01	9.5642	8.944852	0.000094	0.939990	0.159239	-0.001882
1045	5.2200e-01	9.5575	8.929030	0.000158	1.580892	0.267810	-0.003164
1046	5.2250e-01	9.5483	8.921332	0.000077	0.769082	0.130286	-0.001539
1047	5.2300e-01	9.5364	8.903800	0.000175	1.751799	0.296763	-0.003507
1048	5.2350e-01	9.5290	8.899523	0.000043	0.427268	0.072381	-0.000855
1049	5.2400e-01	9.5172	8.865313	0.000342	3.418144	0.579049	-0.006842
1050	5.2450e-01	9.5056	8.868307	-0.000030	-0.299088	-0.050667	0.000599
1051	5.2500e-01	9.4952	8.847353	0.000209	2.093613	0.354668	-0.004191
1052	5.2550e-01	9.4867	8.836662	0.000107	1.068170	0.180953	-0.002138
1053	5.2600e-01	9.4763	8.815281	0.000214	2.136340	0.361906	-0.004276
1054	5.2650e-01	9.4656	8.795183	0.000201	2.008160	0.340191	-0.004020
1055	5.2700e-01	9.4534	8.805873	-0.000107	-1.068170	-0.180953	0.002138
1056	5.2750e-01	9.4458	8.781926	0.000239	2.392701	0.405335	-0.004789
1057	5.2800e-01	9.4330	8.766532	0.000154	1.538165	0.260572	-0.003079
1058	5.2850e-01	9.4269	8.748572	0.000179	1.794526	0.304001	-0.003592
1059	5.2900e-01	9.4128	8.748999	-0.000004	-0.042727	-0.007238	0.000086
1060	5.2950e-01	9.4073	8.721631	0.000273	2.734515	0.463239	-0.005474
1061	5.3000e-01	9.3939	8.716072	0.000056	0.555448	0.094096	-0.001112
1062	5.3050e-01	9.3860	8.690415	0.000256	2.563608	0.434287	-0.005132
1063	5.3100e-01	9.3768	8.678441	0.000120	1.196350	0.202667	-0.002395
1064	5.3150e-01	9.3643	8.656632	0.000218	2.179067	0.369144	-0.004362
1065	5.3200e-01	9.3579	8.621567	0.000350	3.503598	0.593526	-0.007013
1066	5.3250e-01	9.3451	8.627126	-0.000056	-0.555448	-0.094096	0.001112
1067	5.3300e-01	9.3365	8.608311	0.000188	1.879979	0.318477	-0.003763
1068	5.3350e-01	9.3259	8.595909	0.000124	1.239077	0.209905	-0.002480
1069	5.3400e-01	9.3152	8.574528	0.000214	2.136340	0.361906	-0.004276
1070	5.3450e-01	9.3066	8.553575	0.000209	2.093613	0.354668	-0.004191
1071	5.3500e-01	9.2957	8.544594	0.000090	0.897263	0.152000	-0.001796
1072	5.3550e-01	9.2865	8.527917	0.000167	1.666345	0.282287	-0.003335
1073	5.3600e-01	9.2773	8.514233	0.000137	1.367258	0.231620	-0.002737
1074	5.3650e-01	9.2664	8.504825	0.000094	0.939990	0.159239	-0.001882
1075	5.3700e-01	9.2572	8.481734	0.000231	2.307247	0.390858	-0.004618
1076	5.3750e-01	9.2468	8.466339	0.000154	1.538165	0.260572	-0.003079
1077	5.3800e-01	9.2380	8.450944	0.000154	1.538165	0.260572	-0.003079
1078	5.3850e-01	9.2279	8.443675	0.000073	0.726356	0.123048	-0.001454
1079	5.3900e-01	9.2188	8.426142	0.000175	1.751799	0.296763	-0.003507
1080	5.3950e-01	9.2053	8.421438	0.000047	0.469995	0.079619	-0.000941
1081	5.4000e-01	9.1956	8.403478	0.000179	1.794526	0.304001	-0.003592
1082	5.4050e-01	9.1925	8.410320	-0.000068	-0.683629	-0.115810	0.001368
1083	5.4100e-01	9.1769	8.348314	0.000620	6.195386	1.049527	-0.012401
1084	5.4150e-01	9.1656	8.350453	-0.000021	-0.213634	-0.036191	0.000428
1085	5.4200e-01	9.1565	8.335913	0.000145	1.452711	0.246096	-0.002908
1086	5.4250e-01	9.1461	8.320091	0.000158	1.580892	0.267810	-0.003164
1087	5.4300e-01	9.1339	8.299993	0.000201	2.008160	0.340191	-0.004020
1088	5.4350e-01	9.1269	8.288447	0.000115	1.153624	0.195429	-0.002309
1089	5.4400e-01	9.1177	8.281177	0.000073	0.726356	0.123048	-0.001454
1090	5.4450e-01	9.1101	8.252099	0.000291	2.905423	0.492192	-0.005816
1091	5.4500e-01	9.0973	8.252099	-0.000000	-0.000000	-0.000000	0.000000
1092	5.4550e-01	9.0857	8.230290	0.000218	2.179067	0.369144	-0.004362
1093	5.4600e-01	9.0765	8.215323	0.000150	1.495438	0.253334	-0.002993
1094	5.4650e-01	9.0668	8.181113	0.000342	3.418144	0.579049	-0.006842
1095	5.4700e-01	9.0552	8.180685	0.000004	0.042727	0.007238	-0.000086
1096	5.4750e-01	9.0472	8.169995	0.000107	1.068170	0.180953	-0.002138
1097	5.4800e-01	9.0350	8.140061	0.000299	2.990876	0.506668	-0.005987
1098	5.4850e-01	9.0277	8.110555	0.000295	2.948149	0.499430	-0.005901
1099	5.4900e-01	9.0161	8.120818	-0.000103	-1.025443	-0.173715	0.002053
1100	5.4950e-01	9.0054	8.105423	0.000154	1.538165	0.260572	-0.003079
1101	5.5000e-01	8.9954	8.095160	0.000103	1.025443	0.173715	-0.002053
1102	5.5050e-01	8.9856	8.065654	0.000295	2.948149	0.499430	-0.005901
1103	5.5100e-01	8.9771	8.058384	0.000073	0.726356	0.123048	-0.001454
1104	5.5150e-01	8.9642	8.052398	0.000060	0.598175	0.101334	-0.001197
1105	5.5200e-01	8.9551	8.037003	0.000154	1.538165	0.260572	-0.003079
1106	5.5250e-01	8.9453	8.024602	0.000124	1.239077	0.209905	-0.002480
1107	5.5300e-01	8.9362	7.991675	0.000329	3.289964	0.557335	-0.006585
1108	5.5350e-01	8.9258	7.964735	0.000269	2.691789	0.456001	-0.005388
1109	5.5400e-01	8.9191	7.951906	0.000128	1.281804	0.217143	-0.002566
1110	5.5450e-01	8.9063	7.954472	-0.000026	-0.256361	-0.043429	0.000513
1111	5.5500e-01	8.8956	7.931380	0.000231	2.307247	0.390858	-0.004618
1112	5.5550e-01	8.8843	7.912992	0.000184	1.837253	0.311239	-0.003678
1113	5.5600e-01	8.8748	7.903157	0.000098	0.982716	0.166477	-0.001967
1114	5.5650e-01	8.8641	7.885196	0.000179	1.794526	0.304001	-0.003592
1115	5.5700e-01	8.8580	7.860822	0.000244	2.435428	0.412573	-0.004875
1116	5.5750e-01	8.8477	7.852697	0.000081	0.811809	0.137524	-0.001625
1117	5.5800e-01	8.8385	7.840723	0.000120	1.196350	0.202667	-0.002395
1118	5.5850e-01	8.8263	7.812500	0.000282	2.819969	0.477716	-0.005645
1119	5.5900e-01	8.8153	7.824473	-0.000120	-1.196350	-0.202667	0.002395
1120	5.5950e-01	8.8080	7.802665	0.000218	2.179067	0.369144	-0.004362
1121	5.6000e-01	8.7970	7.772303	0.000303	3.033603	0.513906	-0.006072
1122	5.6050e-01	8.7897	7.753488	0.000188	1.879979	0.318477	-0.003763
1123	5.6100e-01	8.7762	7.726120	0.000273	2.734515	0.463239	-0.005474
1124	5.6150e-01	8.7665	7.723554	0.000026	0.256361	0.043429	-0.000513
1125	5.6200e-01	8.7582	7.697896	0.000256	2.563608	0.434287	-0.005132
1126	5.6250e-01	8.7469	7.679936	0.000179	1.794526	0.304001	-0.003592
1127	5.6300e-01	8.7372	7.679936	-0.000000	-0.000000	-0.000000	0.000000
1128	5.6350e-01	8.7277	7.661548	0.000184	1.837253	0.311239	-0.003678
1129	5.6400e-01	8.7183	7.643588	0.000179	1.794526	0.304001	-0.003592
1130	5.6450e-01	8.7079	7.632042	0.000115	1.153624	0.195429	-0.002309
1131	5.6500e-01	8.6938	7.623490	0.000085	0.854536	0.144762	-0.001711
1132	5.6550e-01	8.6887	7.612371	0.000111	1.110897	0.188191	-0.002224
1133	5.6600e-01	8.6768	7.577734	0.000346	3.460871	0.586287	-0.006928
1134	5.6650e-01	8.6676	7.579017	-0.000013	-0.128180	-0.021714	0.000257
1135	5.6700e-01	8.6569	7.548228	0.000308	3.076330	0.521144	-0.006158
1136	5.6750e-01	8.6462	7.533261	0.000150	1.495438	0.253334	-0.002993
1137	5.6800e-01	8.6346	7.517439	0.000158	1.580892	0.267810	-0.003164
1138	5.6850e-01	8.6249	7.509741	0.000077	0.769082	0.130286	-0.001539
1139	5.6900e-01	8.6194	7.481946	0.000278	2.777242	0.470478	-0.005559
1140	5.6950e-01	8.6089	7.459281	0.000226	2.264521	0.383620	-0.004533
1141	5.7000e-01	8.5950	7.455005	0.000043	0.427268	0.072381	-0.000855
1142	5.7050e-01	8.5873	7.442604	0.000124	1.239077	0.209905	-0.002480
1143	5.7100e-01	8.5776	7.424644	0.000179	1.794526	0.304001	-0.003592
1144	5.7150e-01	8.5681	7.413526	0.000111	1.110897	0.188191	-0.002224
1145	5.7200e-01	8.5565	7.398986	0.000145	1.452711	0.246096	-0.002908
1146	5.7250e-01	8.5452	7.389579	0.000094	0.939990	0.159239	-0.001882
1147	5.7300e-01	8.5349	7.372474	0.000171	1.709072	0.289525	-0.003421
1148	5.7350e-01	8.5260	7.341257	0.000312	3.119057	0.528382	-0.006243
1149	5.7400e-01	8.5187	7.336125	0.000051	0.512722	0.086857	-0.001026
1150	5.7450e-01	8.5068	7.320303	0.000158	1.580892	0.267810	-0.003164
1151	5.7500e-01	8.4967	7.304481	0.000158	1.580892	0.267810	-0.003164
1152	5.7550e-01	8.4869	7.283955	0.000205	2.050887	0.347430	-0.004105
1153	5.7600e-01	8.4772	7.262574	0.000214	2.136340	0.361906	-0.004276
1154	5.7650e-01	8.4644	7.254449	0.000081	0.811809	0.137524	-0.001625
1155	5.7700e-01	8.4564	7.231785	0.000226	2.264521	0.383620	-0.004533
1156	5.7750e-01	8.4460	7.217673	0.000141	1.409985	0.238858	-0.002822
1157	5.7800e-01	8.4357	7.192443	0.000252	2.520881	0.427049	-0.005046
1158	5.7850e-01	8.4265	7.200141	-0.000077	-0.769082	-0.130286	0.001539
1159	5.7900e-01	8.4161	7.168069	0.000320	3.204510	0.542859	-0.006414
1160	5.7950e-01	8.4076	7.153957	0.000141	1.409985	0.238858	-0.002822
1161	5.8000e-01	8.3975	7.137280	0.000167	1.666345	0.282287	-0.003335
1162	5.8050e-01	8.3862	7.116326	0.000209	2.093613	0.354668	-0.004191
1163	5.8100e-01	8.3759	7.102642	0.000137	1.367258	0.231620	-0.002737
1164	5.8150e-01	8.3685	7.097083	0.000056	0.555448	0.094096	-0.001112
1165	5.8200e-01	8.3539	7.084682	0.000124	1.239077	0.209905	-0.002480
1166	5.8250e-01	8.3466	7.061590	0.000231	2.307247	0.390858	-0.004618
1167	5.8300e-01	8.3353	7.036360	0.000252	2.520881	0.427049	-0.005046
1168	5.8350e-01	8.3276	7.027808	0.000085	0.854536	0.144762	-0.001711
1169	5.8400e-01	8.3167	7.020538	0.000073	0.726356	0.123048	-0.001454
1170	5.8450e-01	8.3051	7.002150	0.000184	1.837253	0.311239	-0.003678
1171	5.8500e-01	8.2977	6.979914	0.000222	2.221794	0.376382	-0.004447
1172	5.8550e-01	8.2898	6.959388	0.000205	2.050887	0.347430	-0.004105
1173	5.8600e-01	8.2767	6.941427	0.000179	1.794526	0.304001	-0.003592
1174	5.8650e-01	8.2697	6.935441	0.000060	0.598175	0.101334	-0.001197
1175	5.8700e-01	8.2568	6.905507	0.000299	2.990876	0.506668	-0.005987
1176	5.8750e-01	8.2440	6.899092	0.000064	0.640902	0.108572	-0.001283
1177	5.8800e-01	8.2373	6.879422	0.000197	1.965433	0.332953	-0.003934
1178	5.8850e-01	8.2245	6.870441	0.000090	0.897263	0.152000	-0.001796
1179	5.8900e-01	8.2141	6.861889	0.000085	0.854536	0.144762	-0.001711
1180	5.8950e-01	8.2062	6.836231	0.000256	2.563608	0.434287	-0.005132
1181	5.9000e-01	8.1970	6.819126	0.000171	1.709072	0.289525	-0.003421
1182	5.9050e-01	8.1848	6.802449	0.000167	1.666345	0.282287	-0.003335
1183	5.9100e-01	8.1757	6.790048	0.000124	1.239077	0.209905	-0.002480
1184	5.9150e-01	8.1671	6.750706	0.000393	3.930866	0.665907	-0.007868
1185	5.9200e-01	8.1577	6.741299	0.000094	0.939990	0.159239	-0.001882
1186	5.9250e-01	8.1451	6.743437	-0.000021	-0.213634	-0.036191	0.000428
1187	5.9300e-01	8.1372	6.708371	0.000350	3.503598	0.593526	-0.007013
1188	5.9350e-01	8.1256	6.694260	0.000141	1.409985	0.238858	-0.002822
1189	5.9400e-01	8.1171	6.676727	0.000175	1.751799	0.296763	-0.003507
1190	5.9450e-01	8.1070	6.675872	0.000009	0.085454	0.014476	-0.000171
1191	5.9500e-01	8.1000	6.642090	0.000338	3.375417	0.571811	-0.006756
1192	5.9550e-01	8.0859	6.628833	0.000132	1.324531	0.224382	-0.002651
1193	5.9600e-01	8.0768	6.611301	0.000175	1.751799	0.296763	-0.003507
1194	5.9650e-01	8.0670	6.592485	0.000188	1.879979	0.318477	-0.003763
1195	5.9700e-01	8.0566	6.588209	0.000043	0.427268	0.072381	-0.000855
1196	5.9750e-01	8.0463	6.564262	0.000239	2.392701	0.405335	-0.004789
1197	5.9800e-01	8.0374	6.548440	0.000158	1.580892	0.267810	-0.003164
1198	5.9850e-01	8.0283	6.551005	-0.000026	-0.256361	-0.043429	0.000513
1199	5.9900e-01	8.0264	6.541170	0.000098	0.982716	0.166477	-0.001967
1200	5.9950e-01	8.0030	6.498835	0.000423	4.229954	0.716574	-0.008467
1201	6.0000e-01	7.9944	6.493704	0.000051	0.512722	0.086857	-0.001026
1202	6.0050e-01	7.9865	6.458638	0.000350	3.503598	0.593526	-0.007013
1203	6.0100e-01	7.9767	6.449658	0.000090	0.897263	0.152000	-0.001796
1204	6.0150e-01	7.9675	6.445382	0.000043	0.427268	0.072381	-0.000855
1205	6.0200e-01	7.9559	6.408606	0.000367	3.674505	0.622478	-0.007355
1206	6.0250e-01	7.9462	6.397916	0.000107	1.068170	0.180953	-0.002138
1207	6.0300e-01	7.9370	6.388935	0.000090	0.897263	0.152000	-0.001796
1208	6.0350e-01	7.9248	6.380811	0.000081	0.811809	0.137524	-0.001625
1209	6.0400e-01	7.9181	6.364988	0.000158	1.580892	0.267810	-0.003164
1210	6.0450e-01	7.9080	6.336338	0.000286	2.862696	0.484954	-0.005730
1211	6.0500e-01	7.8961	6.320943	0.000154	1.538165	0.260572	-0.003079
1212	6.0550e-01	7.8851	6.307259	0.000137	1.367258	0.231620	-0.002737
1213	6.0600e-01	7.8761	6.296568	0.000107	1.068170	0.180953	-0.002138
1214	6.0650e-01	7.8662	6.277325	0.000192	1.922706	0.325715	-0.003849
1215	6.0700e-01	7.8564	6.258082	0.000192	1.922706	0.325715	-0.003849
1216	6.0750e-01	7.8458	6.243543	0.000145	1.452711	0.246096	-0.002908
1217	6.0800e-01	7.8360	6.213609	0.000299	2.990876	0.506668	-0.005987
1218	6.0850e-01	7.8281	6.200780	0.000128	1.281804	0.217143	-0.002566
1219	6.0900e-01	7.8162	6.192228	0.000085	0.854536	0.144762	-0.001711
1220	6.0950e-01	7.8082	6.177261	0.000150	1.495438	0.253334	-0.002993
1221	6.1000e-01	7.7954	6.144334	0.000329	3.289964	0.557335	-0.006585
1222	6.1050e-01	7.7887	6.136209	0.000081	0.811809	0.137524	-0.001625
1223	6.1100e-01	7.7789	6.119104	0.000171	1.709072	0.289525	-0.003421
1224	6.1150e-01	7.7640	6.105420	0.000137	1.367258	0.231620	-0.002737
1225	6.1200e-01	7.7533	6.104992	0.000004	0.042727	0.007238	-0.000086
1226	6.1250e-01	7.7466	6.083611	0.000214	2.136340	0.361906	-0.004276
1227	6.1300e-01	7.7356	6.053677	0.000299	2.990876	0.506668	-0.005987
1228	6.1350e-01	7.7280	6.036572	0.000171	1.709072	0.289525	-0.003421
1229	6.1400e-01	7.7142	6.029303	0.000073	0.726356	0.123048	-0.001454
1230	6.1450e-01	7.7045	6.016474	0.000128	1.281804	0.217143	-0.002566
1231	6.1500e-01	7.6953	6.004928	0.000115	1.153624	0.195429	-0.002309
1232	6.1550e-01	7.6886	5.971573	0.000333	3.332691	0.564573	-0.006671
1233	6.1600e-01	7.6788	5.951475	0.000201	2.008160	0.340191	-0.004020
1234	6.1650e-01	7.6648	5.948909	0.000026	0.256361	0.043429	-0.000513
1235	6.1700e-01	7.6581	5.927100	0.000218	2.179067	0.369144	-0.004362
1236	6.1750e-01	7.6465	5.903581	0.000235	2.349974	0.398096	-0.004704
1237	6.1800e-01	7.6379	5.888614	0.000150	1.495438	0.253334	-0.002993
1238	6.1850e-01	7.6263	5.869798	0.000188	1.879979	0.318477	-0.003763
1239	6.1900e-01	7.6172	5.849700	0.000201	2.008160	0.340191	-0.004020
1240	6.1950e-01	7.6044	5.850555	-0.000009	-0.085454	-0.014476	0.000171
1241	6.2000e-01	7.5977	5.818056	0.000325	3.247237	0.550097	-0.006500
1242	6.2050e-01	7.5861	5.792826	0.000252	2.520881	0.427049	-0.005046
1243	6.2100e-01	7.5763	5.792398	0.000004	0.042727	0.007238	-0.000086
1244	6.2150e-01	7.5665	5.766313	0.000261	2.606335	0.441525	-0.005217
1245	6.2200e-01	7.5543	5.777859	-0.000115	-1.153624	-0.195429	0.002309
1246	6.2250e-01	7.5452	5.742366	0.000355	3.546325	0.600764	-0.007099
1247	6.2300e-01	7.5378	5.725261	0.000171	1.709072	0.289525	-0.003421
1248	6.2350e-01	7.5244	5.720557	0.000047	0.469995	0.079619	-0.000941
1249	6.2400e-01	7.5171	5.704307	0.000162	1.623619	0.275048	-0.003250
1250	6.2450e-01	7.5061	5.670525	0.000338	3.375417	0.571811	-0.006756
1251	6.2500e-01	7.4951	5.668387	0.000021	0.213634	0.036191	-0.000428
1252	6.2550e-01	7.4866	5.649144	0.000192	1.922706	0.325715	-0.003849
1253	6.2600e-01	7.4780	5.625197	0.000239	2.392701	0.405335	-0.004789
1254	6.2650e-01	7.4670	5.612796	0.000124	1.239077	0.209905	-0.002480
1255	6.2700e-01	7.4548	5.598684	0.000141	1.409985	0.238858	-0.002822
1256	6.2750e-01	7.4474	5.566184	0.000325	3.247237	0.550097	-0.006500
1257	6.2800e-01	7.4353	5.564902	0.000013	0.128180	0.021714	-0.000257
1258	6.2850e-01	7.4252	5.540527	0.000244	2.435428	0.412573	-0.004875
1259	6.2900e-01	7.4161	5.530691	0.000098	0.982716	0.166477	-0.001967
1260	6.2950e-01	7.4048	5.511021	0.000197	1.965433	0.332953	-0.003934
1261	6.3000e-01	7.3981	5.483225	0.000278	2.777242	0.470478	-0.005559
1262	6.3050e-01	7.3865	5.464837	0.000184	1.837253	0.311239	-0.003678
1263	6.3100e-01	7.3776	5.452864	0.000120	1.196350	0.202667	-0.002395
1264	6.3150e-01	7.3669	5.422502	0.000303	3.033603	0.513906	-0.006072
1265	6.3200e-01	7.3593	5.427206	-0.000047	-0.469995	-0.079619	0.000941
1266	6.3250e-01	7.3463	5.411812	0.000154	1.538165	0.260572	-0.003079
1267	6.3300e-01	7.3392	5.395134	0.000167	1.666345	0.282287	-0.003335
1268	6.3350e-01	7.3248	5.368194	0.000269	2.691789	0.456001	-0.005388
1269	6.3400e-01	7.3154	5.348951	0.000192	1.922706	0.325715	-0.003849
1270	6.3450e-01	7.3077	5.340398	0.000085	0.854536	0.144762	-0.001711
1271	6.3500e-01	7.2969	5.320300	0.000201	2.008160	0.340191	-0.004020
1272	6.3550e-01	7.2870	5.299774	0.000205	2.050887	0.347430	-0.004105
1273	6.3600e-01	7.2766	5.283524	0.000162	1.623619	0.275048	-0.003250
1274	6.3650e-01	7.2682	5.272833	0.000107	1.068170	0.180953	-0.002138
1275	6.3700e-01	7.2574	5.247176	0.000256	2.563608	0.434287	-0.005132
1276	6.3750e-01	7.2485	5.228788	0.000184	1.837253	0.311239	-0.003678
1277	6.3800e-01	7.2366	5.222374	0.000064	0.640902	0.108572	-0.001283
1278	6.3850e-01	7.2260	5.204841	0.000175	1.751799	0.296763	-0.003507
1279	6.3900e-01	7.2168	5.198427	0.000064	0.640902	0.108572	-0.001283
1280	6.3950e-01	7.2040	5.171914	0.000265	2.649062	0.448763	-0.005303
1281	6.4000e-01	7.1979	5.138559	0.000333	3.332691	0.564573	-0.006671
1282	6.4050e-01	7.1875	5.123165	0.000154	1.538165	0.260572	-0.003079
1283	6.4100e-01	7.1735	5.122737	0.000004	0.042727	0.007238	-0.000086
1284	6.4150e-01	7.1667	5.110336	0.000124	1.239077	0.209905	-0.002480
1285	6.4200e-01	7.1552	5.094086	0.000162	1.623619	0.275048	-0.003250
1286	6.4250e-01	7.1449	5.076553	0.000175	1.751799	0.296763	-0.003507
1287	6.4300e-01	7.1353	5.054317	0.000222	2.221794	0.376382	-0.004447
1288	6.4350e-01	7.1265	5.036357	0.000179	1.794526	0.304001	-0.003592
1289	6.4400e-01	7.1155	5.022673	0.000137	1.367258	0.231620	-0.002737
1290	6.4450e-01	7.1063	4.986752	0.000359	3.589051	0.608002	-0.007184
1291	6.4500e-01	7.0984	4.986325	0.000004	0.042727	0.007238	-0.000086
1292	6.4550e-01	7.0905	4.967081	0.000192	1.922706	0.325715	-0.003849
1293	6.4600e-01	7.0746	4.954680	0.000124	1.239077	0.209905	-0.002480
1294	6.4650e-01	7.0642	4.942279	0.000124	1.239077	0.209905	-0.002480
1295	6.4700e-01	7.0605	4.914483	0.000278	2.777242	0.470478	-0.005559
1296	6.4750e-01	7.0459	4.890109	0.000244	2.435428	0.412573	-0.004875
1297	6.4800e-01	7.0357	4.883694	0.000064	0.640902	0.108572	-0.001283
1298	6.4850e-01	7.0245	4.869583	0.000141	1.409985	0.238858	-0.002822
1299	6.4900e-01	7.0178	4.854616	0.000150	1.495438	0.253334	-0.002993
1300	6.4950e-01	7.0056	4.827248	0.000273	2.734515	0.463239	-0.005474
1301	6.5000e-01	6.9974	4.806294	0.000209	2.093613	0.354668	-0.004191
1302	6.5050e-01	6.9849	4.800308	0.000060	0.598175	0.101334	-0.001197
1303	6.5100e-01	6.9775	4.787479	0.000128	1.281804	0.217143	-0.002566
1304	6.5150e-01	6.9669	4.748992	0.000385	3.845412	0.651430	-0.007697
1305	6.5200e-01	6.9580	4.744289	0.000047	0.469995	0.079619	-0.000941
1306	6.5250e-01	6.9470	4.731032	0.000132	1.324531	0.224382	-0.002651
1307	6.5300e-01	6.9366	4.701526	0.000295	2.948149	0.499430	-0.005901
1308	6.5350e-01	6.9238	4.699388	0.000021	0.213634	0.036191	-0.000428
1309	6.5400e-01	6.9165	4.680145	0.000192	1.922706	0.325715	-0.003849
1310	6.5450e-01	6.9064	4.657908	0.000222	2.221794	0.376382	-0.004447
1311	6.5500e-01	6.8976	4.650211	0.000077	0.769082	0.130286	-0.001539
1312	6.5550e-01	6.8860	4.616856	0.000333	3.332691	0.564573	-0.006671
1313	6.5600e-01	6.8768	4.623271	-0.000064	-0.640902	-0.108572	0.001283
1314	6.5650e-01	6.8658	4.587778	0.000355	3.546325	0.600764	-0.007099
1315	6.5700e-01	6.8561	4.572811	0.000150	1.495438	0.253334	-0.002993
1316	6.5750e-01	6.8481	4.578370	-0.000056	-0.555448	-0.094096	0.001112
1317	6.5800e-01	6.8359	4.531759	0.000466	4.657222	0.788955	-0.009322
1318	6.5850e-01	6.8256	4.510805	0.000209	2.093613	0.354668	-0.004191
1319	6.5900e-01	6.8170	4.496694	0.000141	1.409985	0.238858	-0.002822
1320	6.5950e-01	6.8060	4.478733	0.000179	1.794526	0.304001	-0.003592
1321	6.6000e-01	6.7944	4.463339	0.000154	1.538165	0.260572	-0.003079
1322	6.6050e-01	6.7841	4.447517	0.000158	1.580892	0.267810	-0.003164
1323	6.6100e-01	6.7761	4.448800	-0.000013	-0.128180	-0.021714	0.000257
1324	6.6150e-01	6.7664	4.426991	0.000218	2.179067	0.369144	-0.004362
1325	6.6200e-01	6.7578	4.401333	0.000256	2.563608	0.434287	-0.005132
1326	6.6250e-01	6.7456	4.372255	0.000291	2.905423	0.492192	-0.005816
1327	6.6300e-01	6.7342	4.358143	0.000141	1.409985	0.238858	-0.002822
1328	6.6350e-01	6.7288	4.342748	0.000154	1.538165	0.260572	-0.003079
1329	6.6400e-01	6.7169	4.324788	0.000179	1.794526	0.304001	-0.003592
1330	6.6450e-01	6.7079	4.321367	0.000034	0.341814	0.057905	-0.000684
1331	6.6500e-01	6.6940	4.288440	0.000329	3.289964	0.557335	-0.006585
1332	6.6550e-01	6.6864	4.276467	0.000120	1.196350	0.202667	-0.002395
1333	6.6600e-01	6.6754	4.256796	0.000197	1.965433	0.332953	-0.003934
1334	6.6650e-01	6.6650	4.251237	0.000056	0.555448	0.094096	-0.001112
1335	6.6700e-01	6.6565	4.228145	0.000231	2.307247	0.390858	-0.004618
1336	6.6750e-01	6.6467	4.195218	0.000329	3.289964	0.557335	-0.006585
1337	6.6800e-01	6.6357	4.182389	0.000128	1.281804	0.217143	-0.002566
1338	6.6850e-01	6.6238	4.175119	0.000073	0.726356	0.123048	-0.001454
1339	6.6900e-01	6.6168	4.155021	0.000201	2.008160	0.340191	-0.004020
1340	6.6950e-01	6.6046	4.143047	0.000120	1.196350	0.202667	-0.002395
1341	6.7000e-01	6.5976	4.106272	0.000367	3.674505	0.622478	-0.007355
1342	6.7050e-01	6.5887	4.092588	0.000137	1.367258	0.231620	-0.002737
1343	6.7100e-01	6.5762	4.078476	0.000141	1.409985	0.238858	-0.002822
1344	6.7150e-01	6.5680	4.067358	0.000111	1.110897	0.188191	-0.002224
1345	6.7200e-01	6.5555	4.046832	0.000205	2.050887	0.347430	-0.004105
1346	6.7250e-01	6.5466	4.033148	0.000137	1.367258	0.231620	-0.002737
1347	6.7300e-01	6.5357	4.009628	0.000235	2.349974	0.398096	-0.004704
1348	6.7350e-01	6.5262	4.005780	0.000038	0.384541	0.065143	-0.000770
1349	6.7400e-01	6.5182	3.973280	0.000325	3.247237	0.550097	-0.006500
1350	6.7450e-01	6.5045	3.950616	0.000226	2.264521	0.383620	-0.004533
1351	6.7500e-01	6.4944	3.949333	0.000013	0.128180	0.021714	-0.000257
1352	6.7550e-01	6.4853	3.929235	0.000201	2.008160	0.340191	-0.004020
1353	6.7600e-01	6.4752	3.925386	0.000038	0.384541	0.065143	-0.000770
1354	6.7650e-01	6.4685	3.891176	0.000342	3.418144	0.579049	-0.006842
1355	6.7700e-01	6.4572	3.876209	0.000150	1.495438	0.253334	-0.002993
1356	6.7750e-01	6.4473	3.847131	0.000291	2.905423	0.492192	-0.005816
1357	6.7800e-01	6.4355	3.844565	0.000026	0.256361	0.043429	-0.000513
1358	6.7850e-01	6.4258	3.822756	0.000218	2.179067	0.369144	-0.004362
1359	6.7900e-01	6.4185	3.792822	0.000299	2.990876	0.506668	-0.005987
1360	6.7950e-01	6.4056	3.783415	0.000094	0.939990	0.159239	-0.001882
1361	6.8000e-01	6.3959	3.768448	0.000150	1.495438	0.253334	-0.002993
1362	6.8050e-01	6.3849	3.759468	0.000090	0.897263	0.152000	-0.001796
1363	6.8100e-01	6.3759	3.726113	0.000333	3.332691	0.564573	-0.006671
1364	6.8150e-01	6.3663	3.717133	0.000090	0.897263	0.152000	-0.001796
1365	6.8200e-01	6.3550	3.703449	0.000137	1.367258	0.231620	-0.002737
1366	6.8250e-01	6.3464	3.685488	0.000179	1.794526	0.304001	-0.003592
1367	6.8300e-01	6.3351	3.645719	0.000397	3.973593	0.673145	-0.007954
1368	6.8350e-01	6.3251	3.650851	-0.000051	-0.512722	-0.086857	0.001026
1369	6.8400e-01	6.3150	3.636312	0.000145	1.452711	0.246096	-0.002908
1370	6.8450e-01	6.3062	3.619207	0.000171	1.709072	0.289525	-0.003421
1371	6.8500e-01	6.2958	3.611082	0.000081	0.811809	0.137524	-0.001625
1372	6.8550e-01	6.2860	3.571312	0.000397	3.973593	0.673145	-0.007954
1373	6.8600e-01	6.2781	3.558484	0.000128	1.281804	0.217143	-0.002566
1374	6.8650e-01	6.2659	3.543089	0.000154	1.538165	0.260572	-0.003079
1375	6.8700e-01	6.2561	3.527695	0.000154	1.538165	0.260572	-0.003079
1376	6.8750e-01	6.2451	3.511017	0.000167	1.666345	0.282287	-0.003335
1377	6.8800e-01	6.2366	3.491347	0.000197	1.965433	0.332953	-0.003934
1378	6.8850e-01	6.2259	3.472103	0.000192	1.922706	0.325715	-0.003849
1379	6.8900e-01	6.2158	3.460130	0.000120	1.196350	0.202667	-0.002395
1380	6.8950e-01	6.2085	3.431907	0.000282	2.819969	0.477716	-0.005645
1381	6.9000e-01	6.1969	3.412664	0.000192	1.922706	0.325715	-0.003849
1382	6.9050e-01	6.1830	3.402828	0.000098	0.982716	0.166477	-0.001967
1383	6.9100e-01	6.1774	3.384868	0.000179	1.794526	0.304001	-0.003592
1384	6.9150e-01	6.1658	3.372894	0.000120	1.196350	0.202667	-0.002395
1385	6.9200e-01	6.1591	3.346382	0.000265	2.649062	0.448763	-0.005303
1386	6.9250e-01	6.1462	3.335691	0.000107	1.068170	0.180953	-0.002138
1387	6.9300e-01	6.1377	3.317303	0.000184	1.837253	0.311239	-0.003678
1388	6.9350e-01	6.1252	3.286514	0.000308	3.076330	0.521144	-0.006158
1389	6.9400e-01	6.1151	3.284804	0.000017	0.170907	0.028952	-0.000342
1390	6.9450e-01	6.1060	3.269409	0.000154	1.538165	0.260572	-0.003079
1391	6.9500e-01	6.0944	3.242041	0.000273	2.734515	0.463239	-0.005474
1392	6.9550e-01	6.0870	3.233916	0.000081	0.811809	0.137524	-0.001625
1393	6.9600e-01	6.0782	3.213390	0.000205	2.050887	0.347430	-0.004105
1394	6.9650e-01	6.0669	3.177470	0.000359	3.589051	0.608002	-0.007184
1395	6.9700e-01	6.0590	3.173621	0.000038	0.384541	0.065143	-0.000770
1396	6.9750e-01	6.0455	3.156088	0.000175	1.751799	0.296763	-0.003507
1397	6.9800e-01	6.0345	3.149674	0.000064	0.640902	0.108572	-0.001283
1398	6.9850e-01	6.0266	3.114181	0.000355	3.546325	0.600764	-0.007099
1399	6.9900e-01	6.0156	3.091517	0.000226	2.264521	0.383620	-0.004533
1400	6.9950e-01	6.0077	3.079116	0.000124	1.239077	0.209905	-0.002480
1401	7.0000e-01	5.9992	3.072701	0.000064	0.640902	0.108572	-0.001283
1402	7.0050e-01	5.9853	3.049610	0.000231	2.307247	0.390858	-0.004618
1403	7.0100e-01	5.9738	3.037636	0.000120	1.196350	0.202667	-0.002395
1404	7.0150e-01	5.9644	3.020531	0.000171	1.709072	0.289525	-0.003421
1405	7.0200e-01	5.9552	2.991025	0.000295	2.948149	0.499430	-0.005901
1406	7.0250e-01	5.9454	2.976058	0.000150	1.495438	0.253334	-0.002993
1407	7.0300e-01	5.9357	2.952539	0.000235	2.349974	0.398096	-0.004704
1408	7.0350e-01	5.9256	2.938427	0.000141	1.409985	0.238858	-0.002822
1409	7.0400e-01	5.9167	2.918329	0.000201	2.008160	0.340191	-0.004020
1410	7.0450e-01	5.9070	2.892244	0.000261	2.606335	0.441525	-0.005217
1411	7.0500e-01	5.8990	2.872573	0.000197	1.965433	0.332953	-0.003934
1412	7.0550e-01	5.8875	2.856751	0.000158	1.580892	0.267810	-0.003164
1413	7.0600e-01	5.8752	2.850336	0.000064	0.640902	0.108572	-0.001283
1414	7.0650e-01	5.8669	2.831093	0.000192	1.922706	0.325715	-0.003849
1415	7.0700e-01	5.8563	2.811850	0.000192	1.922706	0.325715	-0.003849
1416	7.0750e-01	5.8472	2.796028	0.000158	1.580892	0.267810	-0.003164
1417	7.0800e-01	5.8374	2.772936	0.000231	2.307247	0.390858	-0.004618
1418	7.0850e-01	5.8276	2.757114	0.000158	1.580892	0.267810	-0.003164
1419	7.0900e-01	5.8197	2.739154	0.000179	1.794526	0.304001	-0.003592
1420	7.0950e-01	5.8070	2.718628	0.000205	2.050887	0.347430	-0.004105
1421	7.1000e-01	5.7941	2.720338	-0.000017	-0.170907	-0.028952	0.000342
1422	7.1050e-01	5.7861	2.692970	0.000273	2.734515	0.463239	-0.005474
1423	7.1100e-01	5.7761	2.678003	0.000150	1.495438	0.253334	-0.002993
1424	7.1150e-01	5.7672	2.650635	0.000273	2.734515	0.463239	-0.005474
1425	7.1200e-01	5.7556	2.633958	0.000167	1.666345	0.282287	-0.003335
1426	7.1250e-01	5.7471	2.615142	0.000188	1.879979	0.318477	-0.003763
1427	7.1300e-01	5.7355	2.592051	0.000231	2.307247	0.390858	-0.004618
1428	7.1350e-01	5.7257	2.571097	0.000209	2.093613	0.354668	-0.004191
1429	7.1400e-01	5.7153	2.556985	0.000141	1.409985	0.238858	-0.002822
1430	7.1450e-01	5.7043	2.549716	0.000073	0.726356	0.123048	-0.001454
1431	7.1500e-01	5.6998	2.534321	0.000154	1.538165	0.260572	-0.003079
1432	7.1550e-01	5.6873	2.498828	0.000355	3.546325	0.600764	-0.007099
1433	7.1600e-01	5.6656	2.456066	0.000427	4.272680	0.723812	-0.008553
1434	7.1650e-01	5.6683	2.471888	0.000158	1.580892	0.267810	0.003164
1435	7.1700e-01	5.6561	2.453928	0.000179	1.794526	0.304001	-0.003592
1436	7.1750e-01	5.6448	2.453072	0.000009	0.085454	0.014476	-0.000171
1437	7.1800e-01	5.6360	2.411593	0.000414	4.144500	0.702097	-0.008296
1438	7.1850e-01	5.6268	2.389784	0.000218	2.179067	0.369144	-0.004362
1439	7.1900e-01	5.6158	2.367120	0.000226	2.264521	0.383620	-0.004533
1440	7.1950e-01	5.6079	2.353436	0.000137	1.367258	0.231620	-0.002737
1441	7.2000e-01	5.5951	2.364554	-0.000111	-1.110897	-0.188191	0.002224
1442	7.2050e-01	5.5829	2.338469	0.000261	2.606335	0.441525	-0.005217
1443	7.2100e-01	5.5765	2.314949	0.000235	2.349974	0.398096	-0.004704
1444	7.2150e-01	5.5658	2.297844	0.000171	1.709072	0.289525	-0.003421
1445	7.2200e-01	5.5585	2.275608	0.000222	2.221794	0.376382	-0.004447
1446	7.2250e-01	5.5463	2.243536	0.000320	3.204510	0.542859	-0.006414
1447	7.2300e-01	5.5362	2.230707	0.000128	1.281804	0.217143	-0.002566
1448	7.2350e-01	5.5267	2.222582	0.000081	0.811809	0.137524	-0.001625
1449	7.2400e-01	5.5164	2.208043	0.000145	1.452711	0.246096	-0.002908
1450	7.2450e-01	5.5066	2.178109	0.000299	2.990876	0.506668	-0.005987
1451	7.2500e-01	5.4956	2.167846	0.000103	1.025443	0.173715	-0.002053
1452	7.2550e-01	5.4871	2.150314	0.000175	1.751799	0.296763	-0.003507
1453	7.2600e-01	5.4770	2.115248	0.000350	3.503598	0.593526	-0.007013
1454	7.2650e-01	5.4694	2.104558	0.000107	1.068170	0.180953	-0.002138
1455	7.2700e-01	5.4543	2.089163	0.000154	1.538165	0.260572	-0.003079
1456	7.2750e-01	5.4443	2.072058	0.000171	1.709072	0.289525	-0.003421
1457	7.2800e-01	5.4358	2.060085	0.000120	1.196350	0.202667	-0.002395
1458	7.2850e-01	5.4236	2.032717	0.000273	2.734515	0.463239	-0.005474
1459	7.2900e-01	5.4169	2.011335	0.000214	2.136340	0.361906	-0.004276
1460	7.2950e-01	5.4083	1.989099	0.000222	2.221794	0.376382	-0.004447
1461	7.3000e-01	5.3943	1.981402	0.000077	0.769082	0.130286	-0.001539
1462	7.3050e-01	5.3854	1.957882	0.000235	2.349974	0.398096	-0.004704
1463	7.3100e-01	5.3766	1.937356	0.000205	2.050887	0.347430	-0.004105
1464	7.3150e-01	5.3664	1.927521	0.000098	0.982716	0.166477	-0.001967
1465	7.3200e-01	5.3552	1.921107	0.000064	0.640902	0.108572	-0.001283
1466	7.3250e-01	5.3458	1.883903	0.000372	3.717232	0.629716	-0.007441
1467	7.3300e-01	5.3345	1.883903	-0.000000	-0.000000	-0.000000	0.000000
1468	7.3350e-01	5.3278	1.856963	0.000269	2.691789	0.456001	-0.005388
1469	7.3400e-01	5.3152	1.830450	0.000265	2.649062	0.448763	-0.005303
1470	7.3450e-01	5.3058	1.816766	0.000137	1.367258	0.231620	-0.002737
1471	7.3500e-01	5.2966	1.793674	0.000231	2.307247	0.390858	-0.004618
1472	7.3550e-01	5.2869	1.768017	0.000256	2.563608	0.434287	-0.005132
1473	7.3600e-01	5.2783	1.753905	0.000141	1.409985	0.238858	-0.002822
1474	7.3650e-01	5.2658	1.731669	0.000222	2.221794	0.376382	-0.004447
1475	7.3700e-01	5.2551	1.714136	0.000175	1.751799	0.296763	-0.003507
1476	7.3750e-01	5.2454	1.693182	0.000209	2.093613	0.354668	-0.004191
1477	7.3800e-01	5.2347	1.700880	-0.000077	-0.769082	-0.130286	0.001539
1478	7.3850e-01	5.2246	1.668380	0.000325	3.247237	0.550097	-0.006500
1479	7.3900e-01	5.2150	1.652558	0.000158	1.580892	0.267810	-0.003164
1480	7.3950e-01	5.2048	1.641012	0.000115	1.153624	0.195429	-0.002309
1481	7.4000e-01	5.1947	1.624762	0.000162	1.623619	0.275048	-0.003250
1482	7.4050e-01	5.1868	1.596111	0.000286	2.862696	0.484954	-0.005730
1483	7.4100e-01	5.1740	1.580289	0.000158	1.580892	0.267810	-0.003164
1484	7.4150e-01	5.1688	1.567460	0.000128	1.281804	0.217143	-0.002566
1485	7.4200e-01	5.1540	1.540520	0.000269	2.691789	0.456001	-0.005388
1486	7.4250e-01	5.1453	1.516573	0.000239	2.392701	0.405335	-0.004789
1487	7.4300e-01	5.1358	1.496902	0.000197	1.965433	0.332953	-0.003934
1488	7.4350e-01	5.1251	1.483218	0.000137	1.367258	0.231620	-0.002737
1489	7.4400e-01	5.1154	1.469962	0.000132	1.324531	0.224382	-0.002651
1490	7.4450e-01	5.1054	1.445160	0.000248	2.478155	0.419811	-0.004960
1491	7.4500e-01	5.0964	1.419930	0.000252	2.520881	0.427049	-0.005046
1492	7.4550e-01	5.0861	1.406246	0.000137	1.367258	0.231620	-0.002737
1493	7.4600e-01	5.0757	1.397266	0.000090	0.897263	0.152000	-0.001796
1494	7.4650e-01	5.0665	1.372036	0.000252	2.520881	0.427049	-0.005046
1495	7.4700e-01	5.0522	1.364338	0.000077	0.769082	0.130286	-0.001539
1496	7.4750e-01	5.0439	1.337826	0.000265	2.649062	0.448763	-0.005303
1497	7.4800e-01	5.0348	1.335260	0.000026	0.256361	0.043429	-0.000513
1498	7.4850e-01	5.0256	1.296346	0.000389	3.888139	0.658669	-0.007783
1499	7.4900e-01	5.0148	1.278813	0.000175	1.751799	0.296763	-0.003507
1500	7.4950e-01	5.0049	1.266412	0.000124	1.239077	0.209905	-0.002480
1501	7.5000e-01	4.9973	1.252301	0.000141	1.409985	0.238858	-0.002822
1502	7.5050e-01	4.9844	1.219801	0.000325	3.247237	0.550097	-0.006500
1503	7.5100e-01	4.9774	1.210393	0.000094	0.939990	0.159239	-0.001882
1504	7.5150e-01	4.9701	1.181742	0.000286	2.862696	0.484954	-0.005730
1505	7.5200e-01	4.9567	1.167631	0.000141	1.409985	0.238858	-0.002822
1506	7.5250e-01	4.9463	1.155230	0.000124	1.239077	0.209905	-0.002480
1507	7.5300e-01	4.9347	1.132566	0.000226	2.264521	0.383620	-0.004533
1508	7.5350e-01	4.9261	1.117599	0.000150	1.495438	0.253334	-0.002993
1509	7.5400e-01	4.9158	1.107336	0.000103	1.025443	0.173715	-0.002053
1510	7.5450e-01	4.9066	1.070560	0.000367	3.674505	0.622478	-0.007355
1511	7.5500e-01	4.8965	1.052172	0.000184	1.837253	0.311239	-0.003678
1512	7.5550e-01	4.8875	1.032929	0.000192	1.922706	0.325715	-0.003849
1513	7.5600e-01	4.8766	1.012830	0.000201	2.008160	0.340191	-0.004020
1514	7.5650e-01	4.8663	1.002567	0.000103	1.025443	0.173715	-0.002053
1515	7.5700e-01	4.8550	0.987601	0.000150	1.495438	0.253334	-0.002993
1516	7.5750e-01	4.8462	0.950825	0.000367	3.674505	0.622478	-0.007355
1517	7.5800e-01	4.8346	0.941417	0.000094	0.939990	0.159239	-0.001882
1518	7.5850e-01	4.8267	0.929871	0.000115	1.153624	0.195429	-0.002309
1519	7.5900e-01	4.8163	0.917470	0.000124	1.239077	0.209905	-0.002480
1520	7.5950e-01	4.8062	0.888819	0.000286	2.862696	0.484954	-0.005730
1521	7.6000e-01	4.7943	0.873852	0.000150	1.495438	0.253334	-0.002993
1522	7.6050e-01	4.7867	0.850333	0.000235	2.349974	0.398096	-0.004704
1523	7.6100e-01	4.7803	0.836649	0.000137	1.367258	0.231620	-0.002737
1524	7.6150e-01	4.7656	0.814840	0.000218	2.179067	0.369144	-0.004362
1525	7.6200e-01	4.7565	0.801156	0.000137	1.367258	0.231620	-0.002737
1526	7.6250e-01	4.7473	0.782340	0.000188	1.879979	0.318477	-0.003763
1527	7.6300e-01	4.7363	0.752834	0.000295	2.948149	0.499430	-0.005901
1528	7.6350e-01	4.7278	0.737867	0.000150	1.495438	0.253334	-0.002993
1529	7.6400e-01	4.7131	0.723756	0.000141	1.409985	0.238858	-0.002822
1530	7.6450e-01	4.7060	0.705368	0.000184	1.837253	0.311239	-0.003678
1531	7.6500e-01	4.7003	0.681849	0.000235	2.349974	0.398096	-0.004704
1532	7.6550e-01	4.6877	0.670303	0.000115	1.153624	0.195429	-0.002309
1533	7.6600e-01	4.6765	0.646783	0.000235	2.349974	0.398096	-0.004704
1534	7.6650e-01	4.6667	0.618988	0.000278	2.777242	0.470478	-0.005559
1535	7.6700e-01	4.6594	0.603593	0.000154	1.538165	0.260572	-0.003079
1536	7.6750e-01	4.6472	0.582212	0.000214	2.136340	0.361906	-0.004276
1537	7.6800e-01	4.6375	0.560831	0.000214	2.136340	0.361906	-0.004276
1538	7.6850e-01	4.6265	0.546719	0.000141	1.409985	0.238858	-0.002822
1539	7.6900e-01	4.6136	0.533035	0.000137	1.367258	0.231620	-0.002737
1540	7.6950e-01	4.6072	0.510371	0.000226	2.264521	0.383620	-0.004533
1541	7.7000e-01	4.5966	0.479154	0.000312	3.119057	0.528382	-0.006243
1542	7.7050e-01	4.5882	0.480865	-0.000017	-0.170907	-0.028952	0.000342
1543	7.7100e-01	4.5757	0.453069	0.000278	2.777242	0.470478	-0.005559
1544	7.7150e-01	4.5654	0.446655	0.000064	0.640902	0.108572	-0.001283
1545	7.7200e-01	4.5563	0.420569	0.000261	2.606335	0.441525	-0.005217
1546	7.7250e-01	4.5483	0.398761	0.000218	2.179067	0.369144	-0.004362
1547	7.7300e-01	4.5374	0.375669	0.000231	2.307247	0.390858	-0.004618
1548	7.7350e-01	4.5271	0.364978	0.000107	1.068170	0.180953	-0.002138
1549	7.7400e-01	4.5171	0.337183	0.000278	2.777242	0.470478	-0.005559
1550	7.7450e-01	4.5052	0.313236	0.000239	2.392701	0.405335	-0.004789
1551	7.7500e-01	4.4946	0.311953	0.000013	0.128180	0.021714	-0.000257
1552	7.7550e-01	4.4870	0.266624	0.000453	4.529041	0.767240	-0.009066
1553	7.7600e-01	4.4760	0.264914	0.000017	0.170907	0.028952	-0.000342
1554	7.7650e-01	4.4653	0.249519	0.000154	1.538165	0.260572	-0.003079
1555	7.7700e-01	4.4559	0.224717	0.000248	2.478155	0.419811	-0.004960
1556	7.7750e-01	4.4460	0.208467	0.000162	1.623619	0.275048	-0.003250
1557	7.7800e-01	4.4360	0.189652	0.000188	1.879979	0.318477	-0.003763
1558	7.7850e-01	4.4275	0.182810	0.000068	0.683629	0.115810	-0.001368
1559	7.7900e-01	4.4141	0.156725	0.000261	2.606335	0.441525	-0.005217
1560	7.7950e-01	4.4055	0.127646	0.000291	2.905423	0.492192	-0.005816
1561	7.8000e-01	4.4002	0.115673	0.000120	1.196350	0.202667	-0.002395
1562	7.8050e-01	4.3866	0.091726	0.000239	2.392701	0.405335	-0.004789
1563	7.8100e-01	4.3744	0.078897	0.000128	1.281804	0.217143	-0.002566
1564	7.8150e-01	4.3655	0.059654	0.000192	1.922706	0.325715	-0.003849
1565	7.8200e-01	4.3574	0.034851	0.000248	2.478155	0.419811	-0.004960
1566	7.8250e-01	4.3512	0.029720	0.000051	0.512722	0.086857	-0.001026
1567	7.8300e-01	4.3373	-0.003207	0.000329	3.289964	0.557335	-0.006585
1568	7.8350e-01	4.3286	-0.027154	0.000239	2.392701	0.405335	-0.004789
1569	7.8400e-01	4.3176	-0.026299	-0.000009	-0.085454	-0.014476	0.000171
1570	7.8450e-01	4.3030	-0.063075	0.000367	3.674505	0.622478	-0.007355
1571	7.8500e-01	4.2970	-0.083173	0.000201	2.008160	0.340191	-0.004020
1572	7.8550e-01	4.2902	-0.097285	0.000141	1.409985	0.238858	-0.002822
1573	7.8600e-01	4.2758	-0.111396	0.000141	1.409985	0.238858	-0.002822
1574	7.8650e-01	4.2651	-0.123370	0.000120	1.196350	0.202667	-0.002395
1575	7.8700e-01	4.2561	-0.159718	0.000363	3.631778	0.615240	-0.007270
1576	7.8750e-01	4.2454	-0.166560	0.000068	0.683629	0.115810	-0.001368
1577	7.8800e-01	4.2358	-0.202053	0.000355	3.546325	0.600764	-0.007099
1578	7.8850e-01	4.2273	-0.211033	0.000090	0.897263	0.152000	-0.001796
1579	7.8900e-01	4.2181	-0.226428	0.000154	1.538165	0.260572	-0.003079
1580	7.8950e-01	4.2065	-0.243533	0.000171	1.709072	0.289525	-0.003421
1581	7.9000e-01	4.1980	-0.275177	0.000316	3.161783	0.535621	-0.006329
1582	7.9050e-01	4.1861	-0.299552	0.000244	2.435428	0.412573	-0.004875
1583	7.9100e-01	4.1742	-0.305111	0.000056	0.555448	0.094096	-0.001112
1584	7.9150e-01	4.1656	-0.337610	0.000325	3.247237	0.550097	-0.006500
1585	7.9200e-01	4.1542	-0.339748	0.000021	0.213634	0.036191	-0.000428
1586	7.9250e-01	4.1446	-0.366261	0.000265	2.649062	0.448763	-0.005303
1587	7.9300e-01	4.1367	-0.386787	0.000205	2.050887	0.347430	-0.004105
1588	7.9350e-01	4.1254	-0.409879	0.000231	2.307247	0.390858	-0.004618
1589	7.9400e-01	4.1156	-0.433826	0.000239	2.392701	0.405335	-0.004789
1590	7.9450e-01	4.1034	-0.451786	0.000179	1.794526	0.304001	-0.003592
1591	7.9500e-01	4.0967	-0.457773	0.000060	0.598175	0.101334	-0.001197
1592	7.9550e-01	4.0875	-0.477016	0.000192	1.922706	0.325715	-0.003849
1593	7.9600e-01	4.0778	-0.504384	0.000273	2.734515	0.463239	-0.005474
1594	7.9650e-01	4.0674	-0.500108	-0.000043	-0.427268	-0.072381	0.000855
1595	7.9700e-01	4.0562	-0.531752	0.000316	3.161783	0.535621	-0.006329
1596	7.9750e-01	4.0486	-0.553561	0.000218	2.179067	0.369144	-0.004362
1597	7.9800e-01	4.0372	-0.576225	0.000226	2.264521	0.383620	-0.004533
1598	7.9850e-01	4.0265	-0.598462	0.000222	2.221794	0.376382	-0.004447
1599	7.9900e-01	4.0155	-0.619843	0.000214	2.136340	0.361906	-0.004276
1600	7.9950e-01	4.0079	-0.641224	0.000214	2.136340	0.361906	-0.004276
1601	8.0000e-01	3.9963	-0.649349	0.000081	0.811809	0.137524	-0.001625
1602	8.0050e-01	3.9871	-0.686125	0.000367	3.674505	0.622478	-0.007355
1603	8.0100e-01	3.9758	-0.693394	0.000073	0.726356	0.123048	-0.001454
1604	8.0150e-01	3.9658	-0.702802	0.000094	0.939990	0.159239	-0.001882
1605	8.0200e-01	3.9558	-0.733164	0.000303	3.033603	0.513906	-0.006072
1606	8.0250e-01	3.9455	-0.759249	0.000261	2.606335	0.441525	-0.005217
1607	8.0300e-01	3.9371	-0.768656	0.000094	0.939990	0.159239	-0.001882
1608	8.0350e-01	3.9282	-0.789610	0.000209	2.093613	0.354668	-0.004191
1609	8.0400e-01	3.9168	-0.796880	0.000073	0.726356	0.123048	-0.001454
1610	8.0450e-01	3.9040	-0.825958	0.000291	2.905423	0.492192	-0.005816
1611	8.0500e-01	3.8959	-0.852899	0.000269	2.691789	0.456001	-0.005388
1612	8.0550e-01	3.8856	-0.873425	0.000205	2.050887	0.347430	-0.004105
1613	8.0600e-01	3.8795	-0.902931	0.000295	2.948149	0.499430	-0.005901
1614	8.0650e-01	3.8638	-0.912766	0.000098	0.982716	0.166477	-0.001967
1615	8.0700e-01	3.8547	-0.923457	0.000107	1.068170	0.180953	-0.002138
1616	8.0750e-01	3.8472	-0.946976	0.000235	2.349974	0.398096	-0.004704
1617	8.0800e-01	3.8358	-0.963226	0.000162	1.623619	0.275048	-0.003250
1618	8.0850e-01	3.8271	-0.980331	0.000171	1.709072	0.289525	-0.003421
1619	8.0900e-01	3.8165	-1.002567	0.000222	2.221794	0.376382	-0.004447
1620	8.0950e-01	3.8062	-1.015824	0.000132	1.324531	0.224382	-0.002651
1621	8.1000e-01	3.7964	-1.040626	0.000248	2.478155	0.419811	-0.004960
1622	8.1050e-01	3.7885	-1.063718	0.000231	2.307247	0.390858	-0.004618
1623	8.1100e-01	3.7738	-1.063290	-0.000004	-0.042727	-0.007238	0.000086
1624	8.1150e-01	3.7685	-1.093224	0.000299	2.990876	0.506668	-0.005987
1625	8.1200e-01	3.7567	-1.122303	0.000291	2.905423	0.492192	-0.005816
1626	8.1250e-01	3.7488	-1.141546	0.000192	1.922706	0.325715	-0.003849
1627	8.1300e-01	3.7369	-1.166776	0.000252	2.520881	0.427049	-0.005046
1628	8.1350e-01	3.7262	-1.186446	0.000197	1.965433	0.332953	-0.003934
1629	8.1400e-01	3.7160	-1.200130	0.000137	1.367258	0.231620	-0.002737
1630	8.1450e-01	3.7032	-1.221084	0.000209	2.093613	0.354668	-0.004191
1631	8.1500e-01	3.6951	-1.224933	0.000038	0.384541	0.065143	-0.000770
1632	8.1550e-01	3.6847	-1.256577	0.000316	3.161783	0.535621	-0.006329
1633	8.1600e-01	3.6783	-1.284800	0.000282	2.819969	0.477716	-0.005645
1634	8.1650e-01	3.6658	-1.304471	0.000197	1.965433	0.332953	-0.003934
1635	8.1700e-01	3.6548	-1.312596	0.000081	0.811809	0.137524	-0.001625
1636	8.1750e-01	3.6465	-1.340819	0.000282	2.819969	0.477716	-0.005645
1637	8.1800e-01	3.6378	-1.360490	0.000197	1.965433	0.332953	-0.003934
1638	8.1850e-01	3.6267	-1.390851	0.000303	3.033603	0.513906	-0.006072
1639	8.1900e-01	3.6169	-1.397266	0.000064	0.640902	0.108572	-0.001283
1640	8.1950e-01	3.6075	-1.429765	0.000325	3.247237	0.550097	-0.006500
1641	8.2000e-01	3.5934	-1.427199	-0.000026	-0.256361	-0.043429	0.000513
1642	8.2050e-01	3.5877	-1.452002	0.000248	2.478155	0.419811	-0.004960
1643	8.2100e-01	3.5773	-1.471245	0.000192	1.922706	0.325715	-0.003849
1644	8.2150e-01	3.5658	-1.501606	0.000303	3.033603	0.513906	-0.006072
1645	8.2200e-01	3.5571	-1.515718	0.000141	1.409985	0.238858	-0.002822
1646	8.2250e-01	3.5440	-1.518711	0.000030	0.299088	0.050667	-0.000599
1647	8.2300e-01	3.5376	-1.562757	0.000440	4.400861	0.745526	-0.008809
1648	8.2350e-01	3.5272	-1.568316	0.000056	0.555448	0.094096	-0.001112
1649	8.2400e-01	3.5175	-1.599960	0.000316	3.161783	0.535621	-0.006329
1650	8.2450e-01	3.5031	-1.613644	0.000137	1.367258	0.231620	-0.002737
1651	8.2500e-01	3.4980	-1.616637	0.000030	0.299088	0.050667	-0.000599
1652	8.2550e-01	3.4891	-1.655979	0.000393	3.930866	0.665907	-0.007868
1653	8.2600e-01	3.4753	-1.673084	0.000171	1.709072	0.289525	-0.003421
1654	8.2650e-01	3.4653	-1.693182	0.000201	2.008160	0.340191	-0.004020
1655	8.2700e-01	3.4571	-1.719267	0.000261	2.606335	0.441525	-0.005217
1656	8.2750e-01	3.4457	-1.730386	0.000111	1.110897	0.188191	-0.002224
1657	8.2800e-01	3.4357	-1.752622	0.000222	2.221794	0.376382	-0.004447
1658	8.2850e-01	3.4256	-1.764596	0.000120	1.196350	0.202667	-0.002395
1659	8.2900e-01	3.4161	-1.785549	0.000209	2.093613	0.354668	-0.004191
1660	8.2950e-01	3.4081	-1.813773	0.000282	2.819969	0.477716	-0.005645
1661	8.3000e-01	3.3943	-1.832160	0.000184	1.837253	0.311239	-0.003678
1662	8.3050e-01	3.3890	-1.862522	0.000303	3.033603	0.513906	-0.006072
1663	8.3100e-01	3.3781	-1.871930	0.000094	0.939990	0.159239	-0.001882
1664	8.3150e-01	3.3661	-1.894166	0.000222	2.221794	0.376382	-0.004447
1665	8.3200e-01	3.3624	-1.905284	0.000111	1.110897	0.188191	-0.002224
1666	8.3250e-01	3.3444	-1.931370	0.000261	2.606335	0.441525	-0.005217
1667	8.3300e-01	3.3374	-1.946336	0.000150	1.495438	0.253334	-0.002993
1668	8.3350e-01	3.3258	-1.974560	0.000282	2.819969	0.477716	-0.005645
1669	8.3400e-01	3.3136	-2.000217	0.000256	2.563608	0.434287	-0.005132
1670	8.3450e-01	3.3058	-2.009197	0.000090	0.897263	0.152000	-0.001796
1671	8.3500e-01	3.2947	-2.031006	0.000218	2.179067	0.369144	-0.004362
1672	8.3550e-01	3.2845	-2.048111	0.000171	1.709072	0.289525	-0.003421
1673	8.3600e-01	3.2748	-2.067354	0.000192	1.922706	0.325715	-0.003849
1674	8.3650e-01	3.2675	-2.092584	0.000252	2.520881	0.427049	-0.005046
1675	8.3700e-01	3.2578	-2.116531	0.000239	2.392701	0.405335	-0.004789
1676	8.3750e-01	3.2455	-2.125084	0.000085	0.854536	0.144762	-0.001711
1677	8.3800e-01	3.2346	-2.149031	0.000239	2.392701	0.405335	-0.004789
1678	8.3850e-01	3.2289	-2.175116	0.000261	2.606335	0.441525	-0.005217
1679	8.3900e-01	3.2159	-2.188800	0.000137	1.367258	0.231620	-0.002737
1680	8.3950e-01	3.2080	-2.202912	0.000141	1.409985	0.238858	-0.002822
1681	8.4000e-01	3.1935	-2.231990	0.000291	2.905423	0.492192	-0.005816
1682	8.4050e-01	3.1860	-2.245674	0.000137	1.367258	0.231620	-0.002737
1683	8.4100e-01	3.1781	-2.273897	0.000282	2.819969	0.477716	-0.005645
1684	8.4150e-01	3.1641	-2.283305	0.000094	0.939990	0.159239	-0.001882
1685	8.4200e-01	3.1573	-2.306825	0.000235	2.349974	0.398096	-0.004704
1686	8.4250e-01	3.1445	-2.323930	0.000171	1.709072	0.289525	-0.003421
1687	8.4300e-01	3.1344	-2.361988	0.000380	3.802685	0.644192	-0.007612
1688	8.4350e-01	3.1253	-2.361133	-0.000009	-0.085454	-0.014476	0.000171
1689	8.4400e-01	3.1152	-2.392777	0.000316	3.161783	0.535621	-0.006329
1690	8.4450e-01	3.1050	-2.407744	0.000150	1.495438	0.253334	-0.002993
1691	8.4500e-01	3.0958	-2.421856	0.000141	1.409985	0.238858	-0.002822
1692	8.4550e-01	3.0841	-2.455211	0.000333	3.332691	0.564573	-0.006671
1693	8.4600e-01	3.0768	-2.468039	0.000128	1.281804	0.217143	-0.002566
1694	8.4650e-01	3.0658	-2.495407	0.000273	2.734515	0.463239	-0.005474
1695	8.4700e-01	3.0537	-2.502249	0.000068	0.683629	0.115810	-0.001368
1696	8.4750e-01	3.0469	-2.524058	0.000218	2.179067	0.369144	-0.004362
1697	8.4800e-01	3.0362	-2.544157	0.000201	2.008160	0.340191	-0.004020
1698	8.4850e-01	3.0255	-2.571097	0.000269	2.691789	0.456001	-0.005388
1699	8.4900e-01	3.0139	-2.590768	0.000197	1.965433	0.332953	-0.003934
1700	8.4950e-01	3.0066	-2.607445	0.000167	1.666345	0.282287	-0.003335
1701	8.5000e-01	2.9932	-2.627544	0.000201	2.008160	0.340191	-0.004020
1702	8.5050e-01	2.9855	-2.661326	0.000338	3.375417	0.571811	-0.006756
1703	8.5100e-01	2.9785	-2.682280	0.000209	2.093613	0.354668	-0.004191
1704	8.5150e-01	2.9660	-2.689549	0.000073	0.726356	0.123048	-0.001454
1705	8.5200e-01	2.9559	-2.713496	0.000239	2.392701	0.405335	-0.004789
1706	8.5250e-01	2.9460	-2.741719	0.000282	2.819969	0.477716	-0.005645
1707	8.5300e-01	2.9379	-2.759680	0.000179	1.794526	0.304001	-0.003592
1708	8.5350e-01	2.9256	-2.780206	0.000205	2.050887	0.347430	-0.004105
1709	8.5400e-01	2.9138	-2.795600	0.000154	1.538165	0.260572	-0.003079
1710	8.5450e-01	2.9046	-2.807574	0.000120	1.196350	0.202667	-0.002395
1711	8.5500e-01	2.8943	-2.826389	0.000188	1.879979	0.318477	-0.003763
1712	8.5550e-01	2.8841	-2.858034	0.000316	3.161783	0.535621	-0.006329
1713	8.5600e-01	2.8731	-2.866586	0.000085	0.854536	0.144762	-0.001711
1714	8.5650e-01	2.8662	-2.890961	0.000244	2.435428	0.412573	-0.004875
1715	8.5700e-01	2.8558	-2.920467	0.000295	2.948149	0.499430	-0.005901
1716	8.5750e-01	2.8439	-2.939710	0.000192	1.922706	0.325715	-0.003849
1717	8.5800e-01	2.8336	-2.946980	0.000073	0.726356	0.123048	-0.001454
1718	8.5850e-01	2.8273	-2.970499	0.000235	2.349974	0.398096	-0.004704
1719	8.5900e-01	2.8165	-2.991453	0.000209	2.093613	0.354668	-0.004191
1720	8.5950e-01	2.8041	-3.017965	0.000265	2.649062	0.448763	-0.005303
1721	8.6000e-01	2.7962	-3.039774	0.000218	2.179067	0.369144	-0.004362
1722	8.6050e-01	2.7863	-3.050465	0.000107	1.068170	0.180953	-0.002138
1723	8.6100e-01	2.7777	-3.082537	0.000320	3.204510	0.542859	-0.006414
1724	8.6150e-01	2.7676	-3.115036	0.000325	3.247237	0.550097	-0.006500
1725	8.6200e-01	2.7551	-3.112043	-0.000030	-0.299088	-0.050667	0.000599
1726	8.6250e-01	2.7429	-3.129576	0.000175	1.751799	0.296763	-0.003507
1727	8.6300e-01	2.7356	-3.154378	0.000248	2.478155	0.419811	-0.004960
1728	8.6350e-01	2.7257	-3.180463	0.000261	2.606335	0.441525	-0.005217
1729	8.6400e-01	2.7173	-3.206976	0.000265	2.649062	0.448763	-0.005303
1730	8.6450e-01	2.7051	-3.226647	0.000197	1.965433	0.332953	-0.003934
1731	8.6500e-01	2.6978	-3.240331	0.000137	1.367258	0.231620	-0.002737
1732	8.6550e-01	2.6854	-3.259146	0.000188	1.879979	0.318477	-0.003763
1733	8.6600e-01	2.6753	-3.281810	0.000226	2.264521	0.383620	-0.004533
1734	8.6650e-01	2.6654	-3.304047	0.000222	2.221794	0.376382	-0.004447
1735	8.6700e-01	2.6562	-3.334408	0.000303	3.033603	0.513906	-0.006072
1736	8.6750e-01	2.6453	-3.355789	0.000214	2.136340	0.361906	-0.004276
1737	8.6800e-01	2.6366	-3.384013	0.000282	2.819969	0.477716	-0.005645
1738	8.6850e-01	2.6260	-3.386578	0.000026	0.256361	0.043429	-0.000513
1739	8.6900e-01	2.6160	-3.401973	0.000154	1.538165	0.260572	-0.003079
1740	8.6950e-01	2.6080	-3.424637	0.000226	2.264521	0.383620	-0.004533
1741	8.7000e-01	2.5946	-3.450722	0.000261	2.606335	0.441525	-0.005217
1742	8.7050e-01	2.5854	-3.459702	0.000090	0.897263	0.152000	-0.001796
1743	8.7100e-01	2.5763	-3.481084	0.000214	2.136340	0.361906	-0.004276
1744	8.7150e-01	2.5641	-3.508879	0.000278	2.777242	0.470478	-0.005559
1745	8.7200e-01	2.5580	-3.520425	0.000115	1.153624	0.195429	-0.002309
1746	8.7250e-01	2.5470	-3.565326	0.000449	4.486314	0.760002	-0.008980
1747	8.7300e-01	2.5393	-3.579010	0.000137	1.367258	0.231620	-0.002737
1748	8.7350e-01	2.5275	-3.596115	0.000171	1.709072	0.289525	-0.003421
1749	8.7400e-01	2.5149	-3.587562	-0.000085	-0.854536	-0.144762	0.001711
1750	8.7450e-01	2.5037	-3.637594	0.000500	4.999036	0.846860	-0.010006
1751	8.7500e-01	2.4963	-3.655555	0.000179	1.794526	0.304001	-0.003592
1752	8.7550e-01	2.4866	-3.671804	0.000162	1.623619	0.275048	-0.003250
1753	8.7600e-01	2.4747	-3.690192	0.000184	1.837253	0.311239	-0.003678
1754	8.7650e-01	2.4678	-3.713712	0.000235	2.349974	0.398096	-0.004704
1755	8.7700e-01	2.4552	-3.718416	0.000047	0.469995	0.079619	-0.000941
1756	8.7750e-01	2.4440	-3.756047	0.000376	3.759959	0.636954	-0.007526
1757	8.7800e-01	2.4355	-3.783415	0.000273	2.734515	0.463239	-0.005474
1758	8.7850e-01	2.4274	-3.797526	0.000141	1.409985	0.238858	-0.002822
1759	8.7900e-01	2.4176	-3.815059	0.000175	1.751799	0.296763	-0.003507
1760	8.7950e-01	2.4054	-3.843282	0.000282	2.819969	0.477716	-0.005645
1761	8.8000e-01	2.3975	-3.862098	0.000188	1.879979	0.318477	-0.003763
1762	8.8050e-01	2.3849	-3.884762	0.000226	2.264521	0.383620	-0.004533
1763	8.8100e-01	2.3749	-3.890749	0.000060	0.598175	0.101334	-0.001197
1764	8.8150e-01	2.3643	-3.911702	0.000209	2.093613	0.354668	-0.004191
1765	8.8200e-01	2.3560	-3.940353	0.000286	2.862696	0.484954	-0.005730
1766	8.8250e-01	2.3468	-3.963017	0.000226	2.264521	0.383620	-0.004533
1767	8.8300e-01	2.3370	-3.971997	0.000090	0.897263	0.152000	-0.001796
1768	8.8350e-01	2.3268	-4.013049	0.000410	4.101773	0.694859	-0.008210
1769	8.8400e-01	2.3171	-4.017753	0.000047	0.469995	0.079619	-0.000941
1770	8.8450e-01	2.3062	-4.045977	0.000282	2.819969	0.477716	-0.005645
1771	8.8500e-01	2.2964	-4.073345	0.000273	2.734515	0.463239	-0.005474
1772	8.8550e-01	2.2870	-4.090022	0.000167	1.666345	0.282287	-0.003335
1773	8.8600e-01	2.2765	-4.100713	0.000107	1.068170	0.180953	-0.002138
1774	8.8650e-01	2.2650	-4.124660	0.000239	2.392701	0.405335	-0.004789
1775	8.8700e-01	2.2559	-4.151172	0.000265	2.649062	0.448763	-0.005303
1776	8.8750e-01	2.2459	-4.174692	0.000235	2.349974	0.398096	-0.004704
1777	8.8800e-01	2.2359	-4.188803	0.000141	1.409985	0.238858	-0.002822
1778	8.8850e-01	2.2247	-4.216171	0.000273	2.734515	0.463239	-0.005474
1779	8.8900e-01	2.2157	-4.222586	0.000064	0.640902	0.108572	-0.001283
1780	8.8950e-01	2.2053	-4.254230	0.000316	3.161783	0.535621	-0.006329
1781	8.9000e-01	2.1971	-4.280315	0.000261	2.606335	0.441525	-0.005217
1782	8.9050e-01	2.1853	-4.288868	0.000085	0.854536	0.144762	-0.001711
1783	8.9100e-01	2.1744	-4.321367	0.000325	3.247237	0.550097	-0.006500
1784	8.9150e-01	2.1680	-4.346169	0.000248	2.478155	0.419811	-0.004960
1785	8.9200e-01	2.1574	-4.350018	0.000038	0.384541	0.065143	-0.000770
1786	8.9250e-01	2.1458	-4.380807	0.000308	3.076330	0.521144	-0.006158
1787	8.9300e-01	2.1346	-4.391070	0.000103	1.025443	0.173715	-0.002053
1788	8.9350e-01	2.1252	-4.423997	0.000329	3.289964	0.557335	-0.006585
1789	8.9400e-01	2.1150	-4.438964	0.000150	1.495438	0.253334	-0.002993
1790	8.9450e-01	2.1085	-4.480871	0.000419	4.187227	0.709335	-0.008381
1791	8.9500e-01	2.0956	-4.483865	0.000030	0.299088	0.050667	-0.000599
1792	8.9550e-01	2.0863	-4.493700	0.000098	0.982716	0.166477	-0.001967
1793	8.9600e-01	2.0770	-4.524917	0.000312	3.119057	0.528382	-0.006243
1794	8.9650e-01	2.0673	-4.551857	0.000269	2.691789	0.456001	-0.005388
1795	8.9700e-01	2.0563	-4.567252	0.000154	1.538165	0.260572	-0.003079
1796	8.9750e-01	2.0477	-4.579225	0.000120	1.196350	0.202667	-0.002395
1797	8.9800e-01	2.0358	-4.627975	0.000487	4.870856	0.825145	-0.009750
1798	8.9850e-01	2.0267	-4.625836	-0.000021	-0.213634	-0.036191	0.000428
1799	8.9900e-01	2.0157	-4.649356	0.000235	2.349974	0.398096	-0.004704
1800	8.9950e-01	2.0052	-4.654487	0.000051	0.512722	0.086857	-0.001026
1801	9.0000e-01	1.9952	-4.691263	0.000367	3.674505	0.622478	-0.007355
1802	9.0050e-01	1.9868	-4.709651	0.000184	1.837253	0.311239	-0.003678
1803	9.0100e-01	1.9751	-4.731460	0.000218	2.179067	0.369144	-0.004362
1804	9.0150e-01	1.9642	-4.744716	0.000132	1.324531	0.224382	-0.002651
1805	9.0200e-01	1.9550	-4.766097	0.000214	2.136340	0.361906	-0.004276
1806	9.0250e-01	1.9429	-4.800735	0.000346	3.460871	0.586287	-0.006928
1807	9.0300e-01	1.9370	-4.828958	0.000282	2.819969	0.477716	-0.005645
1808	9.0350e-01	1.9250	-4.843070	0.000141	1.409985	0.238858	-0.002822
1809	9.0400e-01	1.9176	-4.861030	0.000179	1.794526	0.304001	-0.003592
1810	9.0450e-01	1.9040	-4.884122	0.000231	2.307247	0.390858	-0.004618
1811	9.0500e-01	1.8945	-4.892247	0.000081	0.811809	0.137524	-0.001625
1812	9.0550e-01	1.8831	-4.920898	0.000286	2.862696	0.484954	-0.005730
1813	9.0600e-01	1.8759	-4.941424	0.000205	2.050887	0.347430	-0.004105
1814	9.0650e-01	1.8642	-4.959384	0.000179	1.794526	0.304001	-0.003592
1815	9.0700e-01	1.8556	-4.989746	0.000303	3.033603	0.513906	-0.006072
1816	9.0750e-01	1.8484	-5.022673	0.000329	3.289964	0.557335	-0.006585
1817	9.0800e-01	1.8352	-5.025238	0.000026	0.256361	0.043429	-0.000513
1818	9.0850e-01	1.8253	-5.046620	0.000214	2.136340	0.361906	-0.004276
1819	9.0900e-01	1.8149	-5.065008	0.000184	1.837253	0.311239	-0.003678
1820	9.0950e-01	1.8056	-5.080830	0.000158	1.580892	0.267810	-0.003164
1821	9.1000e-01	1.7955	-5.121454	0.000406	4.059046	0.687621	-0.008125
1822	9.1050e-01	1.7847	-5.140697	0.000192	1.922706	0.325715	-0.003849
1823	9.1100e-01	1.7735	-5.148394	0.000077	0.769082	0.130286	-0.001539
1824	9.1150e-01	1.7644	-5.172769	0.000244	2.435428	0.412573	-0.004875
1825	9.1200e-01	1.7544	-5.191157	0.000184	1.837253	0.311239	-0.003678
1826	9.1250e-01	1.7435	-5.213821	0.000226	2.264521	0.383620	-0.004533
1827	9.1300e-01	1.7348	-5.230071	0.000162	1.623619	0.275048	-0.003250
1828	9.1350e-01	1.7264	-5.256156	0.000261	2.606335	0.441525	-0.005217
1829	9.1400e-01	1.7157	-5.286945	0.000308	3.076330	0.521144	-0.006158
1830	9.1450e-01	1.7078	-5.297636	0.000107	1.068170	0.180953	-0.002138
1831	9.1500e-01	1.6956	-5.328425	0.000308	3.076330	0.521144	-0.006158
1832	9.1550e-01	1.6840	-5.339115	0.000107	1.068170	0.180953	-0.002138
1833	9.1600e-01	1.6754	-5.363918	0.000248	2.478155	0.419811	-0.004960
1834	9.1650e-01	1.6639	-5.407963	0.000440	4.400861	0.745526	-0.008809
1835	9.1700e-01	1.6544	-5.421647	0.000137	1.367258	0.231620	-0.002737
1836	9.1750e-01	1.6483	-5.438752	0.000171	1.709072	0.289525	-0.003421
1837	9.1800e-01	1.6342	-5.463554	0.000248	2.478155	0.419811	-0.004960
1838	9.1850e-01	1.6245	-5.475955	0.000124	1.239077	0.209905	-0.002480
1839	9.1900e-01	1.6156	-5.506744	0.000308	3.076330	0.521144	-0.006158
1840	9.1950e-01	1.6071	-5.518718	0.000120	1.196350	0.202667	-0.002395
1841	9.2000e-01	1.5939	-5.540527	0.000218	2.179067	0.369144	-0.004362
1842	9.2050e-01	1.5875	-5.563191	0.000226	2.264521	0.383620	-0.004533
1843	9.2100e-01	1.5751	-5.596973	0.000338	3.375417	0.571811	-0.006756
1844	9.2150e-01	1.5637	-5.596973	-0.000000	-0.000000	-0.000000	0.000000
1845	9.2200e-01	1.5559	-5.629045	0.000320	3.204510	0.542859	-0.006414
1846	9.2250e-01	1.5450	-5.647433	0.000184	1.837253	0.311239	-0.003678
1847	9.2300e-01	1.5369	-5.651709	0.000043	0.427268	0.072381	-0.000855
1848	9.2350e-01	1.5275	-5.691906	0.000402	4.016319	0.680383	-0.008039
1849	9.2400e-01	1.5175	-5.719274	0.000273	2.734515	0.463239	-0.005474
1850	9.2450e-01	1.5063	-5.742366	0.000231	2.307247	0.390858	-0.004618
1851	9.2500e-01	1.4944	-5.754340	0.000120	1.196350	0.202667	-0.002395
1852	9.2550e-01	1.4816	-5.776576	0.000222	2.221794	0.376382	-0.004447
1853	9.2600e-01	1.4741	-5.794964	0.000184	1.837253	0.311239	-0.003678
1854	9.2650e-01	1.4676	-5.821477	0.000265	2.649062	0.448763	-0.005303
1855	9.2700e-01	1.4553	-5.836444	0.000150	1.495438	0.253334	-0.002993
1856	9.2750e-01	1.4423	-5.868943	0.000325	3.247237	0.550097	-0.006500
1857	9.2800e-01	1.4355	-5.888614	0.000197	1.965433	0.332953	-0.003934
1858	9.2850e-01	1.4230	-5.902298	0.000137	1.367258	0.231620	-0.002737
1859	9.2900e-01	1.4153	-5.928383	0.000261	2.606335	0.441525	-0.005217
1860	9.2950e-01	1.4040	-5.942922	0.000145	1.452711	0.246096	-0.002908
1861	9.3000e-01	1.3956	-5.972428	0.000295	2.948149	0.499430	-0.005901
1862	9.3050e-01	1.3843	-5.995948	0.000235	2.349974	0.398096	-0.004704
1863	9.3100e-01	1.3769	-6.007066	0.000111	1.110897	0.188191	-0.002224
1864	9.3150e-01	1.3641	-6.024599	0.000175	1.751799	0.296763	-0.003507
1865	9.3200e-01	1.3560	-6.062230	0.000376	3.759959	0.636954	-0.007526
1866	9.3250e-01	1.3458	-6.083183	0.000209	2.093613	0.354668	-0.004191
1867	9.3300e-01	1.3353	-6.117821	0.000346	3.460871	0.586287	-0.006928
1868	9.3350e-01	1.3260	-6.128939	0.000111	1.110897	0.188191	-0.002224
1869	9.3400e-01	1.3159	-6.159301	0.000303	3.033603	0.513906	-0.006072
1870	9.3450e-01	1.3056	-6.163149	0.000038	0.384541	0.065143	-0.000770
1871	9.3500e-01	1.2953	-6.178116	0.000150	1.495438	0.253334	-0.002993
1872	9.3550e-01	1.2845	-6.207195	0.000291	2.905423	0.492192	-0.005816
1873	9.3600e-01	1.2767	-6.232425	0.000252	2.520881	0.427049	-0.005046
1874	9.3650e-01	1.2634	-6.256372	0.000239	2.392701	0.405335	-0.004789
1875	9.3700e-01	1.2547	-6.261075	0.000047	0.469995	0.079619	-0.000941
1876	9.3750e-01	1.2458	-6.294858	0.000338	3.375417	0.571811	-0.006756
1877	9.3800e-01	1.2363	-6.325647	0.000308	3.076330	0.521144	-0.006158
1878	9.3850e-01	1.2282	-6.350877	0.000252	2.520881	0.427049	-0.005046
1879	9.3900e-01	1.2141	-6.364988	0.000141	1.409985	0.238858	-0.002822
1880	9.3950e-01	1.2081	-6.381666	0.000167	1.666345	0.282287	-0.003335
1881	9.4000e-01	1.1960	-6.398771	0.000171	1.709072	0.289525	-0.003421
1882	9.4050e-01	1.1853	-6.428705	0.000299	2.990876	0.506668	-0.005987
1883	9.4100e-01	1.1768	-6.450086	0.000214	2.136340	0.361906	-0.004276
1884	9.4150e-01	1.1674	-6.467191	0.000171	1.709072	0.289525	-0.003421
1885	9.4200e-01	1.1536	-6.495414	0.000282	2.819969	0.477716	-0.005645
1886	9.4250e-01	1.1469	-6.508670	0.000132	1.324531	0.224382	-0.002651
1887	9.4300e-01	1.1378	-6.537321	0.000286	2.862696	0.484954	-0.005730
1888	9.4350e-01	1.1308	-6.560841	0.000235	2.349974	0.398096	-0.004704
1889	9.4400e-01	1.1182	-6.588209	0.000273	2.734515	0.463239	-0.005474
1890	9.4450e-01	1.1035	-6.612156	0.000239	2.392701	0.405335	-0.004789
1891	9.4500e-01	1.0950	-6.617287	0.000051	0.512722	0.086857	-0.001026
1892	9.4550e-01	1.0869	-6.633537	0.000162	1.623619	0.275048	-0.003250
1893	9.4600e-01	1.0791	-6.663043	0.000295	2.948149	0.499430	-0.005901
1894	9.4650e-01	1.0654	-6.694687	0.000316	3.161783	0.535621	-0.006329
1895	9.4700e-01	1.0567	-6.715214	0.000205	2.050887	0.347430	-0.004105
1896	9.4750e-01	1.0474	-6.742154	0.000269	2.691789	0.456001	-0.005388
1897	9.4800e-01	1.0365	-6.755838	0.000137	1.367258	0.231620	-0.002737
1898	9.4850e-01	1.0254	-6.792614	0.000367	3.674505	0.622478	-0.007355
1899	9.4900e-01	1.0138	-6.795179	0.000026	0.256361	0.043429	-0.000513
1900	9.4950e-01	1.0040	-6.814423	0.000192	1.922706	0.325715	-0.003849
1901	9.5000e-01	0.9957	-6.844784	0.000303	3.033603	0.513906	-0.006072
1902	9.5050e-01	0.9862	-6.862317	0.000175	1.751799	0.296763	-0.003507
1903	9.5100e-01	0.9756	-6.881987	0.000197	1.965433	0.332953	-0.003934
1904	9.5150e-01	0.9642	-6.909783	0.000278	2.777242	0.470478	-0.005559
1905	9.5200e-01	0.9537	-6.935441	0.000256	2.563608	0.434287	-0.005132
1906	9.5250e-01	0.9479	-6.958532	0.000231	2.307247	0.390858	-0.004618
1907	9.5300e-01	0.9377	-6.967940	0.000094	0.939990	0.159239	-0.001882
1908	9.5350e-01	0.9260	-6.998301	0.000303	3.033603	0.513906	-0.006072
1909	9.5400e-01	0.9183	-7.023104	0.000248	2.478155	0.419811	-0.004960
1910	9.5450e-01	0.9051	-7.039781	0.000167	1.666345	0.282287	-0.003335
1911	9.5500e-01	0.8969	-7.066294	0.000265	2.649062	0.448763	-0.005303
1912	9.5550e-01	0.8891	-7.079978	0.000137	1.367258	0.231620	-0.002737
1913	9.5600e-01	0.8761	-7.109056	0.000291	2.905423	0.492192	-0.005816
1914	9.5650e-01	0.8662	-7.130438	0.000214	2.136340	0.361906	-0.004276
1915	9.5700e-01	0.8546	-7.158233	0.000278	2.777242	0.470478	-0.005559
1916	9.5750e-01	0.8458	-7.193299	0.000350	3.503598	0.593526	-0.007013
1917	9.5800e-01	0.8398	-7.190305	-0.000030	-0.299088	-0.050667	0.000599
1918	9.5850e-01	0.8244	-7.220239	0.000299	2.990876	0.506668	-0.005987
1919	9.5900e-01	0.8150	-7.245469	0.000252	2.520881	0.427049	-0.005046
1920	9.5950e-01	0.8050	-7.254877	0.000094	0.939990	0.159239	-0.001882
1921	9.6000e-01	0.7967	-7.286948	0.000320	3.204510	0.542859	-0.006414
1922	9.6050e-01	0.7858	-7.300205	0.000132	1.324531	0.224382	-0.002651
1923	9.6100e-01	0.7742	-7.317738	0.000175	1.751799	0.296763	-0.003507
1924	9.6150e-01	0.7659	-7.351520	0.000338	3.375417	0.571811	-0.006756
1925	9.6200e-01	0.7563	-7.372474	0.000209	2.093613	0.354668	-0.004191
1926	9.6250e-01	0.7469	-7.387868	0.000154	1.538165	0.260572	-0.003079
1927	9.6300e-01	0.7362	-7.428492	0.000406	4.059046	0.687621	-0.008125
1928	9.6350e-01	0.7286	-7.442176	0.000137	1.367258	0.231620	-0.002737
1929	9.6400e-01	0.7155	-7.453722	0.000115	1.153624	0.195429	-0.002309
1930	9.6450e-01	0.7048	-7.469972	0.000162	1.623619	0.275048	-0.003250
1931	9.6500e-01	0.6945	-7.499906	0.000299	2.990876	0.506668	-0.005987
1932	9.6550e-01	0.6849	-7.535399	0.000355	3.546325	0.600764	-0.007099
1933	9.6600e-01	0.6779	-7.558063	0.000226	2.264521	0.383620	-0.004533
1934	9.6650e-01	0.6653	-7.558918	0.000009	0.085454	0.014476	-0.000171
1935	9.6700e-01	0.6566	-7.596549	0.000376	3.759959	0.636954	-0.007526
1936	9.6750e-01	0.6447	-7.614509	0.000179	1.794526	0.304001	-0.003592
1937	9.6800e-01	0.6344	-7.637601	0.000231	2.307247	0.390858	-0.004618
1938	9.6850e-01	0.6249	-7.651285	0.000137	1.367258	0.231620	-0.002737
1939	9.6900e-01	0.6161	-7.677798	0.000265	2.649062	0.448763	-0.005303
1940	9.6950e-01	0.6059	-7.706021	0.000282	2.819969	0.477716	-0.005645
1941	9.7000e-01	0.5945	-7.733389	0.000273	2.734515	0.463239	-0.005474
1942	9.7050e-01	0.5850	-7.747501	0.000141	1.409985	0.238858	-0.002822
1943	9.7100e-01	0.5740	-7.769310	0.000218	2.179067	0.369144	-0.004362
1944	9.7150e-01	0.5670	-7.791546	0.000222	2.221794	0.376382	-0.004447
1945	9.7200e-01	0.5564	-7.809507	0.000179	1.794526	0.304001	-0.003592
1946	9.7250e-01	0.5470	-7.839013	0.000295	2.948149	0.499430	-0.005901
1947	9.7300e-01	0.5350	-7.851841	0.000128	1.281804	0.217143	-0.002566
1948	9.7350e-01	0.5237	-7.880065	0.000282	2.819969	0.477716	-0.005645
1949	9.7400e-01	0.5169	-7.907860	0.000278	2.777242	0.470478	-0.005559
1950	9.7450e-01	0.5064	-7.925821	0.000179	1.794526	0.304001	-0.003592
1951	9.7500e-01	0.4961	-7.951906	0.000261	2.606335	0.441525	-0.005217
1952	9.7550e-01	0.4859	-7.965162	0.000132	1.324531	0.224382	-0.002651
1953	9.7600e-01	0.4752	-7.997662	0.000325	3.247237	0.550097	-0.006500
1954	9.7650e-01	0.4655	-8.013056	0.000154	1.538165	0.260572	-0.003079
1955	9.7700e-01	0.4568	-8.032299	0.000192	1.922706	0.325715	-0.003849
1956	9.7750e-01	0.4453	-8.052398	0.000201	2.008160	0.340191	-0.004020
1957	9.7800e-01	0.4358	-8.089601	0.000372	3.717232	0.629716	-0.007441
1958	9.7850e-01	0.4238	-8.107989	0.000184	1.837253	0.311239	-0.003678
1959	9.7900e-01	0.4168	-8.140916	0.000329	3.289964	0.557335	-0.006585
1960	9.7950e-01	0.4081	-8.143054	0.000021	0.213634	0.036191	-0.000428
1961	9.8000e-01	0.3965	-8.170850	0.000278	2.777242	0.470478	-0.005559
1962	9.8050e-01	0.3836	-8.202067	0.000312	3.119057	0.528382	-0.006243
1963	9.8100e-01	0.3754	-8.213185	0.000111	1.110897	0.188191	-0.002224
1964	9.8150e-01	0.3650	-8.240980	0.000278	2.777242	0.470478	-0.005559
1965	9.8200e-01	0.3549	-8.258085	0.000171	1.709072	0.289525	-0.003421
1966	9.8250e-01	0.3488	-8.301276	0.000432	4.315407	0.731050	-0.008638
1967	9.8300e-01	0.3350	-8.305552	0.000043	0.427268	0.072381	-0.000855
1968	9.8350e-01	0.3259	-8.332920	0.000273	2.734515	0.463239	-0.005474
1969	9.8400e-01	0.3172	-8.344466	0.000115	1.153624	0.195429	-0.002309
1970	9.8450e-01	0.3056	-8.367558	0.000231	2.307247	0.390858	-0.004618
1971	9.8500e-01	0.2959	-8.390222	0.000226	2.264521	0.383620	-0.004533
1972	9.8550e-01	0.2856	-8.427425	0.000372	3.717232	0.629716	-0.007441
1973	9.8600e-01	0.2772	-8.456076	0.000286	2.862696	0.484954	-0.005730
1974	9.8650e-01	0.2671	-8.453083	-0.000030	-0.299088	-0.050667	0.000599
1975	9.8700e-01	0.2570	-8.500977	0.000479	4.785402	0.810669	-0.009579
1976	9.8750e-01	0.2457	-8.509957	0.000090	0.897263	0.152000	-0.001796
1977	9.8800e-01	0.2368	-8.527917	0.000179	1.794526	0.304001	-0.003592
1978	9.8850e-01	0.2242	-8.531338	0.000034	0.341814	0.057905	-0.000684
1979	9.8900e-01	0.2140	-8.571107	0.000397	3.973593	0.673145	-0.007954
1980	9.8950e-01	0.2058	-8.587785	0.000167	1.666345	0.282287	-0.003335
1981	9.9000e-01	0.1962	-8.620284	0.000325	3.247237	0.550097	-0.006500
1982	9.9050e-01	0.1848	-8.632258	0.000120	1.196350	0.202667	-0.002395
1983	9.9100e-01	0.1749	-8.671172	0.000389	3.888139	0.658669	-0.007783
1984	9.9150e-01	0.1662	-8.684856	0.000137	1.367258	0.231620	-0.002737
1985	9.9200e-01	0.1561	-8.720776	0.000359	3.589051	0.608002	-0.007184
1986	9.9250e-01	0.1427	-8.728046	0.000073	0.726356	0.123048	-0.001454
1987	9.9300e-01	0.1347	-8.775512	0.000474	4.742675	0.803431	-0.009493
1988	9.9350e-01	0.1241	-8.776795	0.000013	0.128180	0.021714	-0.000257
1989	9.9400e-01	0.1151	-8.802880	0.000261	2.606335	0.441525	-0.005217
1990	9.9450e-01	0.1058	-8.823406	0.000205	2.050887	0.347430	-0.004105
1991	9.9500e-01	0.0957	-8.843077	0.000197	1.965433	0.332953	-0.003934
1992	9.9550e-01	0.0816	-8.868734	0.000256	2.563608	0.434287	-0.005132
1993	9.9600e-01	0.0758	-8.887550	0.000188	1.879979	0.318477	-0.003763
1994	9.9650e-01	0.0652	-8.919194	0.000316	3.161783	0.535621	-0.006329
1995	9.9700e-01	0.0553	-8.946562	0.000273	2.734515	0.463239	-0.005474
1996	9.9750e-01	0.0439	-8.970082	0.000235	2.349974	0.398096	-0.004704
1997	9.9800e-01	0.0359	-8.973503	0.000034	0.341814	0.057905	-0.000684
1998	9.9850e-01	0.0260	-8.996167	0.000226	2.264521	0.383620	-0.004533
1999	9.9900e-01	0.0131	-9.030804	0.000346	3.460871	0.586287	-0.006928
2000	9.9950e-01	0.0040	-9.058172	0.000273	2.734515	0.463239	-0.005474
2001	1.0000e+00	-0.0043	-9.061593	0.000273	2.734515	0.463239	-0.000684

PMax (uC/cm2):	1.92e+01
Pr (uC/cm2):	5.34e-01
-Pr (uC/cm2):	0.00e+00
PLoss (uC/cm2):	0.00e+00
C (Max-Eff) (nF):	1.92e-01
K (Eff):	3.25e+02
Vert. (+/-Pr) Shift (uC/cm2):	2.67e-01
Offset (uC/cm2):	9.60e+00

A (Loop Area - uC/cm2·Volts):	-3.60e-03



Hysteresis Version: 5.48.1 - Radiant Technologies, Inc., 1999 - 9/12/24

