»»»»»»»»»»»»»»»»»»»»»»»»»»»»»»»»»»»» Hysteresis ««««««««««««««««««««««««««««««««««««
»»»  Executed Version:	5.48.1
»»»  Vision Version:	5.48.4 (R)
»»»  Vision Compiled:	9/18/24
»»»  Driver Version:	5.47.0
»»»  Windows Version:	Windows 8 or 8.1
»»»  Processor Information:	x86 (AMD or Intel) - 32 Processors
»»»  Tester Name:	PMF21124-494 (100V)
»»»  Tester S/N:	PMF21124-494
»»»  Internal Amp Type:	100V RevK 270k
»»»  Internal Amp S/N:	iAB2-596/K     
»»»  Execution Count:	1
»»»»»»»»»»»»»»»»»»»»»»»»»»»»»»»»»»»»»»»»»»««««««««««««««««««««««««««««««««««««««««««

Stored:	6/16/2025 - 14:24:33
Configured:	06/16/25 02:13:38 PM
Executed:	06/16/25 02:23:51 PM

»»»»»»»»»»»»»»»»»»»»»»»»»»»»»»»»»»» Sample Info ««««««««««««««««««««««««««««««««««««
Sample Name:	
Lot Name:	
Wafer Name:	
Die Row/Column:	0/0
Capacitor Number:	0
Sample Area (cm2):	1.00e-04
Sample Thickness (microns):	3.00e-01

Amplifier:	Internal

»»»»»»»»»»»»»»»»»»»»»»»»»»»»»»»»»»» Tester Info «««««««««««««««««««««««««««««««««««
Tester Name:	PMF21124-494 (100V)
Tester Serial Number:	PMF21124-494
Return Signal Amp. Level:	0.19 [Index: 3]

»»»»»»»»»»»»»»»»»»»»»»»»»»»»»»»» Hysteresis Info ««««««««««««««««««««««««««««««««««
Task Name:	Hyst-4
Volts:	20.00
Field:	666.67 (kV/cm)
DCBias:	0.00
DCField:	0.00 (kV/cm)
Hysteresis Period (ms):	1.00e+00
Preset:	Enabled
Preset Delay (ms):	1.00e+03
Profile:	Standard Bipolar

»»»»»»»»»»»»»»»»»»»»»»»»»»»»»»»»»»»»»» Data «««««««««««««««««««««««««««««««««««««««
Points:	2001

Valid Data

Point	Time (ms)	Drive Voltage	Measured Polarization (uC/cm2)	Capacitance (uF)	Normalized Capacitance (uF/cm2)	Dielectric Constant	Instantaneous Current (mA)
   1	0.0000e+00	0.0128	-2.742507	0.000303	3.030054	1.026610	0.024199
   2	5.0000e-04	0.0289	-2.621514	0.000303	3.030054	1.026610	0.024199
   3	1.0000e-03	0.0594	-2.411793	0.000525	5.252094	1.779457	0.041944
   4	1.5000e-03	0.0834	-2.411793	0.000000	0.000000	0.000000	0.000000
   5	2.0000e-03	0.1380	-2.314999	0.000242	2.424043	0.821288	0.019359
   6	2.5000e-03	0.1652	-2.226270	0.000222	2.222040	0.752847	0.017746
   7	3.0000e-03	0.2134	-2.149642	0.000192	1.919034	0.650186	0.015326
   8	3.5000e-03	0.2519	-2.032682	0.000293	2.929052	0.992390	0.023392
   9	4.0000e-03	0.2839	-1.931854	0.000253	2.525045	0.855508	0.020165
  10	4.5000e-03	0.3321	-1.802795	0.000323	3.232058	1.095051	0.025812
  11	5.0000e-03	0.3690	-1.778596	0.000061	0.606011	0.205322	0.004840
  12	5.5000e-03	0.4123	-1.613239	0.000414	4.141074	1.403034	0.033071
  13	6.0000e-03	0.4460	-1.540644	0.000182	1.818032	0.615966	0.014519
  14	6.5000e-03	0.4861	-1.379320	0.000404	4.040072	1.368813	0.032265
  15	7.0000e-03	0.5262	-1.205896	0.000434	4.343077	1.471474	0.034685
  16	7.5000e-03	0.5631	-1.153466	0.000131	1.313023	0.444864	0.010486
  17	8.0000e-03	0.6064	-1.024407	0.000323	3.232058	1.095051	0.025812
  18	8.5000e-03	0.6433	-0.867116	0.000394	3.939070	1.334593	0.031458
  19	9.0000e-03	0.6898	-0.859050	0.000020	0.202004	0.068441	0.001613
  20	9.5000e-03	0.7315	-0.685627	0.000434	4.343077	1.471474	0.034685
  21	1.0000e-02	0.7764	-0.677561	0.000020	0.202004	0.068441	0.001613
  22	1.0500e-02	0.8069	-0.483972	0.000485	4.848086	1.642576	0.038718
  23	1.1000e-02	0.8502	-0.447674	0.000091	0.909016	0.307983	0.007260
  24	1.1500e-02	0.8920	-0.423475	0.000061	0.606011	0.205322	0.004840
  25	1.2000e-02	0.9385	-0.375078	0.000121	1.212022	0.410644	0.009679
  26	1.2500e-02	0.9657	-0.064530	0.000778	7.777138	2.634966	0.062110
  27	1.3000e-02	1.0059	0.080662	0.000364	3.636065	1.231932	0.029038
  28	1.3500e-02	1.0508	0.129059	0.000121	1.212022	0.410644	0.009679
  29	1.4000e-02	1.0861	0.250052	0.000303	3.030054	1.026610	0.024199
  30	1.4500e-02	1.1310	0.294416	0.000111	1.111020	0.376424	0.008873
  31	1.5000e-02	1.1727	0.266185	-0.000071	-0.707013	-0.239542	-0.005646
  32	1.5500e-02	1.2048	0.435575	0.000424	4.242076	1.437254	0.033878
  33	1.6000e-02	1.2545	0.709825	0.000687	6.868122	2.326983	0.054850
  34	1.6500e-02	1.2866	0.798554	0.000222	2.222040	0.752847	0.017746
  35	1.7000e-02	1.3283	0.907447	0.000273	2.727049	0.923949	0.021779
  36	1.7500e-02	1.3668	1.020374	0.000283	2.828050	0.958169	0.022585
  37	1.8000e-02	1.4101	1.084904	0.000162	1.616029	0.547525	0.012906
  38	1.8500e-02	1.4390	1.375287	0.000727	7.272129	2.463864	0.058077
  39	1.9000e-02	1.4919	1.302691	-0.000182	-1.818032	-0.615966	-0.014519
  40	1.9500e-02	1.5433	1.230095	-0.000182	-1.818032	-0.615966	-0.014519
  41	2.0000e-02	1.5641	1.379320	0.000374	3.737067	1.266152	0.029845
  42	2.0500e-02	1.6042	1.641471	0.000657	6.565117	2.224322	0.052430
  43	2.1000e-02	1.6492	1.766497	0.000313	3.131056	1.060830	0.025005
  44	2.1500e-02	1.6844	1.835060	0.000172	1.717031	0.581746	0.013713
  45	2.2000e-02	1.7326	1.952020	0.000293	2.929052	0.992390	0.023392
  46	2.2500e-02	1.7647	2.093178	0.000354	3.535063	1.197712	0.028232
  47	2.3000e-02	1.8112	2.117377	0.000061	0.606011	0.205322	0.004840
  48	2.3500e-02	1.8513	2.181906	0.000162	1.616029	0.547525	0.012906
  49	2.4000e-02	1.8914	2.310965	0.000323	3.232058	1.095051	0.025812
  50	2.4500e-02	1.9379	2.407760	0.000242	2.424043	0.821288	0.019359
  51	2.5000e-02	1.9732	2.601349	0.000485	4.848086	1.642576	0.038718
  52	2.5500e-02	2.0261	2.653779	0.000131	1.313023	0.444864	0.010486
  53	2.6000e-02	2.0470	2.746540	0.000232	2.323041	0.787068	0.018552
  54	2.6500e-02	2.0903	2.883666	0.000343	3.434061	1.163491	0.027425
  55	2.7000e-02	2.1304	2.948195	0.000162	1.616029	0.547525	0.012906
  56	2.7500e-02	2.1721	3.036923	0.000222	2.222040	0.752847	0.017746
  57	2.8000e-02	2.2106	3.133718	0.000242	2.424043	0.821288	0.019359
  58	2.8500e-02	2.2523	3.286975	0.000384	3.838068	1.300373	0.030652
  59	2.9000e-02	2.2924	3.375704	0.000222	2.222040	0.752847	0.017746
  60	2.9500e-02	2.3326	3.645921	0.000677	6.767120	2.292762	0.054044
  61	3.0000e-02	2.3662	3.645921	0.000000	0.000000	0.000000	0.000000
  62	3.0500e-02	2.4063	3.662054	0.000040	0.404007	0.136881	0.003226
  63	3.1000e-02	2.4449	3.706418	0.000111	1.111020	0.376424	0.008873
  64	3.1500e-02	2.4914	3.823377	0.000293	2.929052	0.992390	0.023392
  65	3.2000e-02	2.5379	3.932271	0.000273	2.727049	0.923949	0.021779
  66	3.2500e-02	2.5668	4.049231	0.000293	2.929052	0.992390	0.023392
  67	3.3000e-02	2.6069	4.275085	0.000566	5.656101	1.916339	0.045171
  68	3.3500e-02	2.6534	4.295250	0.000051	0.505009	0.171102	0.004033
  69	3.4000e-02	2.6871	4.521104	0.000566	5.656101	1.916339	0.045171
  70	3.4500e-02	2.7320	4.553368	0.000081	0.808014	0.273763	0.006453
  71	3.5000e-02	2.7641	4.694527	0.000354	3.535063	1.197712	0.028232
  72	3.5500e-02	2.8026	4.831652	0.000343	3.434061	1.163491	0.027425
  73	3.6000e-02	2.8507	4.960711	0.000323	3.232058	1.095051	0.025812
  74	3.6500e-02	2.8892	4.952645	-0.000020	-0.202004	-0.068441	-0.001613
  75	3.7000e-02	2.9293	5.174466	0.000556	5.555099	1.882118	0.044364
  76	3.7500e-02	2.9630	5.243028	0.000172	1.717031	0.581746	0.013713
  77	3.8000e-02	3.0079	5.234962	-0.000020	-0.202004	-0.068441	-0.001613
  78	3.8500e-02	3.0545	5.355955	0.000303	3.030054	1.026610	0.024199
  79	3.9000e-02	3.0962	5.569709	0.000535	5.353095	1.813678	0.042751
  80	3.9500e-02	3.1315	5.581808	0.000030	0.303005	0.102661	0.002420
  81	4.0000e-02	3.1700	5.747166	0.000414	4.141074	1.403034	0.033071
  82	4.0500e-02	3.2117	5.892357	0.000364	3.636065	1.231932	0.029038
  83	4.1000e-02	3.2582	5.973019	0.000202	2.020036	0.684407	0.016132
  84	4.1500e-02	3.2903	6.065780	0.000232	2.323041	0.787068	0.018552
  85	4.2000e-02	3.3320	6.223071	0.000394	3.939070	1.334593	0.031458
  86	4.2500e-02	3.3657	6.279535	0.000141	1.414025	0.479085	0.011293
  87	4.3000e-02	3.4074	6.323899	0.000111	1.111020	0.376424	0.008873
  88	4.3500e-02	3.4491	6.594116	0.000677	6.767120	2.292762	0.054044
  89	4.4000e-02	3.4924	6.666712	0.000182	1.818032	0.615966	0.014519
  90	4.4500e-02	3.5341	6.852235	0.000465	4.646083	1.574135	0.037105
  91	4.5000e-02	3.5758	6.977261	0.000313	3.131056	1.060830	0.025005
  92	4.5500e-02	3.6143	6.872400	-0.000263	-2.626047	-0.889729	-0.020972
  93	4.6000e-02	3.6480	6.985327	0.000283	2.828050	0.958169	0.022585
  94	4.6500e-02	3.6962	7.271677	0.000717	7.171128	2.429644	0.057270
  95	4.7000e-02	3.7395	7.291842	0.000051	0.505009	0.171102	0.004033
  96	4.7500e-02	3.7635	7.328140	0.000091	0.909016	0.307983	0.007260
  97	4.8000e-02	3.8181	7.529795	0.000505	5.050090	1.711017	0.040331
  98	4.8500e-02	3.8486	7.578192	0.000121	1.212022	0.410644	0.009679
  99	4.9000e-02	3.8903	7.670954	0.000232	2.323041	0.787068	0.018552
 100	4.9500e-02	3.9240	7.808079	0.000343	3.434061	1.163491	0.027425
 101	5.0000e-02	3.9657	7.896807	0.000222	2.222040	0.752847	0.017746
 102	5.0500e-02	4.0058	8.050065	0.000384	3.838068	1.300373	0.030652
 103	5.1000e-02	4.0491	8.203323	0.000384	3.838068	1.300373	0.030652
 104	5.1500e-02	4.0972	8.372713	0.000424	4.242076	1.437254	0.033878
 105	5.2000e-02	4.1309	8.417077	0.000111	1.111020	0.376424	0.008873
 106	5.2500e-02	4.1742	8.566301	0.000374	3.737067	1.266152	0.029845
 107	5.3000e-02	4.2063	8.663096	0.000242	2.424043	0.821288	0.019359
 108	5.3500e-02	4.2560	8.755857	0.000232	2.323041	0.787068	0.018552
 109	5.4000e-02	4.2897	8.905082	0.000374	3.737067	1.266152	0.029845
 110	5.4500e-02	4.3346	8.957512	0.000131	1.313023	0.444864	0.010486
 111	5.5000e-02	4.3683	8.780056	-0.000444	-4.444079	-1.505695	-0.035491
 112	5.5500e-02	4.4068	8.993810	0.000535	5.353095	1.813678	0.042751
 113	5.6000e-02	4.4517	9.235796	0.000606	6.060108	2.053220	0.048397
 114	5.6500e-02	4.4902	9.320491	0.000212	2.121038	0.718627	0.016939
 115	5.7000e-02	4.5352	9.441484	0.000303	3.030054	1.026610	0.024199
 116	5.7500e-02	4.5673	9.433418	-0.000020	-0.202004	-0.068441	-0.001613
 117	5.8000e-02	4.6090	9.602808	0.000424	4.242076	1.437254	0.033878
 118	5.8500e-02	4.6523	9.752032	0.000374	3.737067	1.266152	0.029845
 119	5.9000e-02	4.6940	9.836727	0.000212	2.121038	0.718627	0.016939
 120	5.9500e-02	4.7277	10.078713	0.000606	6.060108	2.053220	0.048397
 121	6.0000e-02	4.7758	9.998051	-0.000202	-2.020036	-0.684407	-0.016132
 122	6.0500e-02	4.8095	10.094846	0.000242	2.424043	0.821288	0.019359
 123	6.1000e-02	4.8432	10.348931	0.000636	6.363113	2.155881	0.050817
 124	6.1500e-02	4.8897	10.417494	0.000172	1.717031	0.581746	0.013713
 125	6.2000e-02	4.9298	10.562685	0.000364	3.636065	1.231932	0.029038
 126	6.2500e-02	4.9715	10.675612	0.000283	2.828050	0.958169	0.022585
 127	6.3000e-02	5.0052	10.824837	0.000374	3.737067	1.266152	0.029845
 128	6.3500e-02	5.0485	10.861135	0.000091	0.909016	0.307983	0.007260
 129	6.4000e-02	5.0870	10.861135	0.000000	0.000000	0.000000	0.000000
 130	6.4500e-02	5.1335	10.925664	0.000162	1.616029	0.547525	0.012906
 131	6.5000e-02	5.1688	11.006326	0.000202	2.020036	0.684407	0.016132
 132	6.5500e-02	5.2089	11.248312	0.000606	6.060108	2.053220	0.048397
 133	6.6000e-02	5.2571	11.401570	0.000384	3.838068	1.300373	0.030652
 134	6.6500e-02	5.2859	11.510463	0.000273	2.727049	0.923949	0.021779
 135	6.7000e-02	5.3357	11.724218	0.000535	5.353095	1.813678	0.042751
 136	6.7500e-02	5.3726	11.780681	0.000141	1.414025	0.479085	0.011293
 137	6.8000e-02	5.4031	11.869409	0.000222	2.222040	0.752847	0.017746
 138	6.8500e-02	5.4592	11.917806	0.000121	1.212022	0.410644	0.009679
 139	6.9000e-02	5.4929	12.175925	0.000646	6.464115	2.190101	0.051624
 140	6.9500e-02	5.5282	12.208189	0.000081	0.808014	0.273763	0.006453
 141	7.0000e-02	5.5747	12.313050	0.000263	2.626047	0.889729	0.020972
 142	7.0500e-02	5.6148	12.353381	0.000101	1.010018	0.342203	0.008066
 143	7.1000e-02	5.6517	12.438076	0.000212	2.121038	0.718627	0.016939
 144	7.1500e-02	5.6934	12.563102	0.000313	3.131056	1.060830	0.025005
 145	7.2000e-02	5.7271	12.692161	0.000323	3.232058	1.095051	0.025812
 146	7.2500e-02	5.7801	12.792989	0.000253	2.525045	0.855508	0.020165
 147	7.3000e-02	5.8073	12.938180	0.000364	3.636065	1.231932	0.029038
 148	7.3500e-02	5.8538	13.095471	0.000394	3.939070	1.334593	0.031458
 149	7.4000e-02	5.8956	13.168067	0.000182	1.818032	0.615966	0.014519
 150	7.4500e-02	5.9357	13.272928	0.000263	2.626047	0.889729	0.020972
 151	7.5000e-02	5.9758	13.353589	0.000202	2.020036	0.684407	0.016132
 152	7.5500e-02	6.0127	13.397954	0.000111	1.111020	0.376424	0.008873
 153	7.6000e-02	6.0496	13.571377	0.000434	4.343077	1.471474	0.034685
 154	7.6500e-02	6.0961	13.656072	0.000212	2.121038	0.718627	0.016939
 155	7.7000e-02	6.1346	13.813363	0.000394	3.939070	1.334593	0.031458
 156	7.7500e-02	6.1779	14.002918	0.000475	4.747085	1.608356	0.037911
 157	7.8000e-02	6.2116	13.978720	-0.000061	-0.606011	-0.205322	-0.004840
 158	7.8500e-02	6.2469	14.168275	0.000475	4.747085	1.608356	0.037911
 159	7.9000e-02	6.2870	14.204573	0.000091	0.909016	0.307983	0.007260
 160	7.9500e-02	6.3319	14.317500	0.000283	2.828050	0.958169	0.022585
 161	8.0000e-02	6.3672	14.438493	0.000303	3.030054	1.026610	0.024199
 162	8.0500e-02	6.4089	14.628049	0.000475	4.747085	1.608356	0.037911
 163	8.1000e-02	6.4490	14.882134	0.000636	6.363113	2.155881	0.050817
 164	8.1500e-02	6.4923	14.886167	0.000010	0.101002	0.034220	0.000807
 165	8.2000e-02	6.5356	14.870035	-0.000040	-0.404007	-0.136881	-0.003226
 166	8.2500e-02	6.5790	15.071689	0.000505	5.050090	1.711017	0.040331
 167	8.3000e-02	6.5982	15.253179	0.000455	4.545081	1.539915	0.036298
 168	8.3500e-02	6.6528	15.289477	0.000091	0.909016	0.307983	0.007260
 169	8.4000e-02	6.6929	15.402404	0.000283	2.828050	0.958169	0.022585
 170	8.4500e-02	6.7314	15.430635	0.000071	0.707013	0.239542	0.005646
 171	8.5000e-02	6.7699	15.612125	0.000455	4.545081	1.539915	0.036298
 172	8.5500e-02	6.8084	15.769416	0.000394	3.939070	1.334593	0.031458
 173	8.6000e-02	6.8453	15.733118	-0.000091	-0.909016	-0.307983	-0.007260
 174	8.6500e-02	6.8870	15.894442	0.000404	4.040072	1.368813	0.032265
 175	8.7000e-02	6.9255	16.067865	0.000434	4.343077	1.471474	0.034685
 176	8.7500e-02	6.9704	16.116262	0.000121	1.212022	0.410644	0.009679
 177	8.8000e-02	7.0089	16.261454	0.000364	3.636065	1.231932	0.029038
 178	8.8500e-02	7.0538	16.321950	0.000152	1.515027	0.513305	0.012099
 179	8.9000e-02	7.0987	16.358248	0.000091	0.909016	0.307983	0.007260
 180	8.9500e-02	7.1228	16.567969	0.000525	5.252094	1.779457	0.041944
 181	9.0000e-02	7.1725	16.636532	0.000172	1.717031	0.581746	0.013713
 182	9.0500e-02	7.2158	16.729293	0.000232	2.323041	0.787068	0.018552
 183	9.1000e-02	7.2479	16.846253	0.000293	2.929052	0.992390	0.023392
 184	9.1500e-02	7.2912	17.096305	0.000626	6.262111	2.121661	0.050010
 185	9.2000e-02	7.3265	17.096305	0.000000	0.000000	0.000000	0.000000
 186	9.2500e-02	7.3650	17.261662	0.000414	4.141074	1.403034	0.033071
 187	9.3000e-02	7.4035	17.443151	0.000455	4.545081	1.539915	0.036298
 188	9.3500e-02	7.4517	17.398787	-0.000111	-1.111020	-0.376424	-0.008873
 189	9.4000e-02	7.4950	17.543979	0.000364	3.636065	1.231932	0.029038
 190	9.4500e-02	7.5351	17.499615	-0.000111	-1.111020	-0.376424	-0.008873
 191	9.5000e-02	7.5736	17.632707	0.000333	3.333059	1.129271	0.026618
 192	9.5500e-02	7.6105	17.846461	0.000535	5.353095	1.813678	0.042751
 193	9.6000e-02	7.6538	17.906958	0.000152	1.515027	0.513305	0.012099
 194	9.6500e-02	7.6971	17.951322	0.000111	1.111020	0.376424	0.008873
 195	9.7000e-02	7.7324	18.108613	0.000394	3.939070	1.334593	0.031458
 196	9.7500e-02	7.7837	18.290102	0.000455	4.545081	1.539915	0.036298
 197	9.8000e-02	7.8078	18.459492	0.000424	4.242076	1.437254	0.033878
 198	9.8500e-02	7.8479	18.596618	0.000343	3.434061	1.163491	0.027425
 199	9.9000e-02	7.8992	18.693412	0.000242	2.424043	0.821288	0.019359
 200	9.9500e-02	7.9281	18.745842	0.000131	1.313023	0.444864	0.010486
 201	1.0000e-01	7.9730	18.927332	0.000455	4.545081	1.539915	0.036298
 202	1.0050e-01	8.0067	19.100755	0.000434	4.343077	1.471474	0.034685
 203	1.0100e-01	8.0468	19.237880	0.000343	3.434061	1.163491	0.027425
 204	1.0150e-01	8.0966	19.153185	-0.000212	-2.121038	-0.718627	-0.016939
 205	1.0200e-01	8.1238	19.294344	0.000354	3.535063	1.197712	0.028232
 206	1.0250e-01	8.1800	19.423403	0.000323	3.232058	1.095051	0.025812
 207	1.0300e-01	8.2040	19.600859	0.000444	4.444079	1.505695	0.035491
 208	1.0350e-01	8.2474	19.661356	0.000152	1.515027	0.513305	0.012099
 209	1.0400e-01	8.3003	19.612959	-0.000121	-1.212022	-0.410644	-0.009679
 210	1.0450e-01	8.3340	19.742018	0.000323	3.232058	1.095051	0.025812
 211	1.0500e-01	8.3821	19.931573	0.000475	4.747085	1.608356	0.037911
 212	1.0550e-01	8.4046	20.056599	0.000313	3.131056	1.060830	0.025005
 213	1.0600e-01	8.4511	20.193725	0.000343	3.434061	1.163491	0.027425
 214	1.0650e-01	8.5024	20.298585	0.000263	2.626047	0.889729	0.020972
 215	1.0700e-01	8.5329	20.290519	-0.000020	-0.202004	-0.068441	-0.001613
 216	1.0750e-01	8.5762	20.359082	0.000172	1.717031	0.581746	0.013713
 217	1.0800e-01	8.6163	20.463942	0.000263	2.626047	0.889729	0.020972
 218	1.0850e-01	8.6580	20.556704	0.000232	2.323041	0.787068	0.018552
 219	1.0900e-01	8.6917	20.826921	0.000677	6.767120	2.292762	0.054044
 220	1.0950e-01	8.7318	20.972113	0.000364	3.636065	1.231932	0.029038
 221	1.1000e-01	8.7639	21.040675	0.000172	1.717031	0.581746	0.013713
 222	1.1050e-01	8.8121	21.052775	0.000030	0.303005	0.102661	0.002420
 223	1.1100e-01	8.8489	21.250397	0.000495	4.949088	1.676796	0.039524
 224	1.1150e-01	8.8987	21.435919	0.000465	4.646083	1.574135	0.037105
 225	1.1200e-01	8.9276	21.593210	0.000394	3.939070	1.334593	0.031458
 226	1.1250e-01	8.9709	21.730335	0.000343	3.434061	1.163491	0.027425
 227	1.1300e-01	9.0142	21.887626	0.000394	3.939070	1.334593	0.031458
 228	1.1350e-01	9.0559	21.919891	0.000081	0.808014	0.273763	0.006453
 229	1.1400e-01	9.0896	21.895692	-0.000061	-0.606011	-0.205322	-0.004840
 230	1.1450e-01	9.1313	22.000553	0.000263	2.626047	0.889729	0.020972
 231	1.1500e-01	9.1762	22.008619	0.000020	0.202004	0.068441	0.001613
 232	1.1550e-01	9.2163	22.182042	0.000434	4.343077	1.471474	0.034685
 233	1.1600e-01	9.2500	22.452260	0.000677	6.767120	2.292762	0.054044
 234	1.1650e-01	9.2917	22.528889	0.000192	1.919034	0.650186	0.015326
 235	1.1700e-01	9.3302	22.593418	0.000162	1.616029	0.547525	0.012906
 236	1.1750e-01	9.3703	22.742643	0.000374	3.737067	1.266152	0.029845
 237	1.1800e-01	9.4056	22.851537	0.000273	2.727049	0.923949	0.021779
 238	1.1850e-01	9.4570	22.903967	0.000131	1.313023	0.444864	0.010486
 239	1.1900e-01	9.4955	23.020927	0.000293	2.929052	0.992390	0.023392
 240	1.1950e-01	9.5340	23.186284	0.000414	4.141074	1.403034	0.033071
 241	1.2000e-01	9.5660	23.295178	0.000273	2.727049	0.923949	0.021779
 242	1.2050e-01	9.6158	23.367773	0.000182	1.818032	0.615966	0.014519
 243	1.2100e-01	9.6511	23.488766	0.000303	3.030054	1.026610	0.024199
 244	1.2150e-01	9.6976	23.617825	0.000323	3.232058	1.095051	0.025812
 245	1.2200e-01	9.7361	23.658156	0.000101	1.010018	0.342203	0.008066
 246	1.2250e-01	9.7682	23.900142	0.000606	6.060108	2.053220	0.048397
 247	1.2300e-01	9.8099	23.888043	-0.000030	-0.303005	-0.102661	-0.002420
 248	1.2350e-01	9.8500	23.996937	0.000273	2.727049	0.923949	0.021779
 249	1.2400e-01	9.8885	24.303452	0.000768	7.676137	2.600746	0.061303
 250	1.2450e-01	9.9334	24.291353	-0.000030	-0.303005	-0.102661	-0.002420
 251	1.2500e-01	9.9687	24.376048	0.000212	2.121038	0.718627	0.016939
 252	1.2550e-01	10.0200	24.505107	0.000323	3.232058	1.095051	0.025812
 253	1.2600e-01	10.0601	24.452677	-0.000131	-1.313023	-0.444864	-0.010486
 254	1.2650e-01	10.0922	24.646266	0.000485	4.848086	1.642576	0.038718
 255	1.2700e-01	10.1339	24.843887	0.000495	4.949088	1.676796	0.039524
 256	1.2750e-01	10.1692	24.916483	0.000182	1.818032	0.615966	0.014519
 257	1.2800e-01	10.2029	25.110072	0.000485	4.848086	1.642576	0.038718
 258	1.2850e-01	10.2462	25.001178	-0.000273	-2.727049	-0.923949	-0.021779
 259	1.2900e-01	10.2944	25.251230	0.000626	6.262111	2.121661	0.050010
 260	1.2950e-01	10.3313	25.263330	0.000030	0.303005	0.102661	0.002420
 261	1.3000e-01	10.3714	25.493216	0.000576	5.757103	1.950559	0.045977
 262	1.3050e-01	10.4211	25.408521	-0.000212	-2.121038	-0.718627	-0.016939
 263	1.3100e-01	10.4516	25.585978	0.000444	4.444079	1.505695	0.035491
 264	1.3150e-01	10.4981	25.686805	0.000253	2.525045	0.855508	0.020165
 265	1.3200e-01	10.5350	25.856195	0.000424	4.242076	1.437254	0.033878
 266	1.3250e-01	10.5719	26.013486	0.000394	3.939070	1.334593	0.031458
 267	1.3300e-01	10.6056	26.219174	0.000515	5.151092	1.745237	0.041138
 268	1.3350e-01	10.6425	26.235306	0.000040	0.404007	0.136881	0.003226
 269	1.3400e-01	10.6826	26.340167	0.000263	2.626047	0.889729	0.020972
 270	1.3450e-01	10.7339	26.408730	0.000172	1.717031	0.581746	0.013713
 271	1.3500e-01	10.7724	26.541822	0.000333	3.333059	1.129271	0.026618
 272	1.3550e-01	10.8189	26.622484	0.000202	2.020036	0.684407	0.016132
 273	1.3600e-01	10.8574	26.711212	0.000222	2.222040	0.752847	0.017746
 274	1.3650e-01	10.9024	26.836238	0.000313	3.131056	1.060830	0.025005
 275	1.3700e-01	10.9361	26.880602	0.000111	1.111020	0.376424	0.008873
 276	1.3750e-01	10.9746	27.033860	0.000384	3.838068	1.300373	0.030652
 277	1.3800e-01	11.0147	27.223416	0.000475	4.747085	1.608356	0.037911
 278	1.3850e-01	11.0596	27.275846	0.000131	1.313023	0.444864	0.010486
 279	1.3900e-01	11.0901	27.364574	0.000222	2.222040	0.752847	0.017746
 280	1.3950e-01	11.1334	27.417004	0.000131	1.313023	0.444864	0.010486
 281	1.4000e-01	11.1751	27.542030	0.000313	3.131056	1.060830	0.025005
 282	1.4050e-01	11.2120	27.707387	0.000414	4.141074	1.403034	0.033071
 283	1.4100e-01	11.2505	27.792082	0.000212	2.121038	0.718627	0.016939
 284	1.4150e-01	11.2890	27.872744	0.000202	2.020036	0.684407	0.016132
 285	1.4200e-01	11.3291	28.106664	0.000586	5.858104	1.984779	0.046784
 286	1.4250e-01	11.3708	28.138929	0.000081	0.808014	0.273763	0.006453
 287	1.4300e-01	11.4077	28.243790	0.000263	2.626047	0.889729	0.020972
 288	1.4350e-01	11.4526	28.372849	0.000323	3.232058	1.095051	0.025812
 289	1.4400e-01	11.4895	28.554338	0.000455	4.545081	1.539915	0.036298
 290	1.4450e-01	11.5360	28.558371	0.000010	0.101002	0.034220	0.000807
 291	1.4500e-01	11.5649	28.643066	0.000212	2.121038	0.718627	0.016939
 292	1.4550e-01	11.6082	28.796324	0.000384	3.838068	1.300373	0.030652
 293	1.4600e-01	11.6483	28.812456	0.000040	0.404007	0.136881	0.003226
 294	1.4650e-01	11.6900	29.094773	0.000707	7.070126	2.395423	0.056463
 295	1.4700e-01	11.7237	29.215766	0.000303	3.030054	1.026610	0.024199
 296	1.4750e-01	11.7670	29.316594	0.000253	2.525045	0.855508	0.020165
 297	1.4800e-01	11.8104	29.469851	0.000384	3.838068	1.300373	0.030652
 298	1.4850e-01	11.8441	29.481951	0.000030	0.303005	0.102661	0.002420
 299	1.4900e-01	11.8938	29.518249	0.000091	0.909016	0.307983	0.007260
 300	1.4950e-01	11.9323	29.639242	0.000303	3.030054	1.026610	0.024199
 301	1.5000e-01	11.9692	29.832830	0.000485	4.848086	1.642576	0.038718
 302	1.5050e-01	12.0061	29.929625	0.000242	2.424043	0.821288	0.019359
 303	1.5100e-01	12.0510	29.953823	0.000061	0.606011	0.205322	0.004840
 304	1.5150e-01	12.0943	30.078849	0.000313	3.131056	1.060830	0.025005
 305	1.5200e-01	12.1312	30.264372	0.000465	4.646083	1.574135	0.037105
 306	1.5250e-01	12.1633	30.494259	0.000576	5.757103	1.950559	0.045977
 307	1.5300e-01	12.2114	30.474093	-0.000051	-0.505009	-0.171102	-0.004033
 308	1.5350e-01	12.2499	30.591053	0.000293	2.929052	0.992390	0.023392
 309	1.5400e-01	12.2868	30.736244	0.000364	3.636065	1.231932	0.029038
 310	1.5450e-01	12.3333	30.760443	0.000061	0.606011	0.205322	0.004840
 311	1.5500e-01	12.3718	30.869337	0.000273	2.727049	0.923949	0.021779
 312	1.5550e-01	12.4103	31.014528	0.000364	3.636065	1.231932	0.029038
 313	1.5600e-01	12.4456	31.171819	0.000394	3.939070	1.334593	0.031458
 314	1.5650e-01	12.4938	31.208117	0.000091	0.909016	0.307983	0.007260
 315	1.5700e-01	12.5323	31.300878	0.000232	2.323041	0.787068	0.018552
 316	1.5750e-01	12.5772	31.417838	0.000293	2.929052	0.992390	0.023392
 317	1.5800e-01	12.6157	31.494467	0.000192	1.919034	0.650186	0.015326
 318	1.5850e-01	12.6478	31.700155	0.000515	5.151092	1.745237	0.041138
 319	1.5900e-01	12.6943	31.833247	0.000333	3.333059	1.129271	0.026618
 320	1.5950e-01	12.7264	31.913909	0.000202	2.020036	0.684407	0.016132
 321	1.6000e-01	12.7777	31.897777	-0.000040	-0.404007	-0.136881	-0.003226
 322	1.6050e-01	12.8098	31.990538	0.000232	2.323041	0.787068	0.018552
 323	1.6100e-01	12.8563	32.107498	0.000293	2.929052	0.992390	0.023392
 324	1.6150e-01	12.9012	32.357550	0.000626	6.262111	2.121661	0.050010
 325	1.6200e-01	12.9253	32.470477	0.000283	2.828050	0.958169	0.022585
 326	1.6250e-01	12.9766	32.486609	0.000040	0.404007	0.136881	0.003226
 327	1.6300e-01	13.0119	32.514841	0.000071	0.707013	0.239542	0.005646
 328	1.6350e-01	13.0456	32.768926	0.000636	6.363113	2.155881	0.050817
 329	1.6400e-01	13.0841	32.837489	0.000172	1.717031	0.581746	0.013713
 330	1.6450e-01	13.1274	32.857654	0.000051	0.505009	0.171102	0.004033
 331	1.6500e-01	13.1675	32.982680	0.000313	3.131056	1.060830	0.025005
 332	1.6550e-01	13.2125	33.079475	0.000242	2.424043	0.821288	0.019359
 333	1.6600e-01	13.2494	33.172236	0.000232	2.323041	0.787068	0.018552
 334	1.6650e-01	13.2911	33.390023	0.000545	5.454097	1.847898	0.043557
 335	1.6700e-01	13.3264	33.482785	0.000232	2.323041	0.787068	0.018552
 336	1.6750e-01	13.3649	33.587645	0.000263	2.626047	0.889729	0.020972
 337	1.6800e-01	13.4098	33.611844	0.000061	0.606011	0.205322	0.004840
 338	1.6850e-01	13.4563	33.757035	0.000364	3.636065	1.231932	0.029038
 339	1.6900e-01	13.4804	33.857863	0.000253	2.525045	0.855508	0.020165
 340	1.6950e-01	13.5317	34.099849	0.000606	6.060108	2.053220	0.048397
 341	1.7000e-01	13.5670	34.051451	-0.000121	-1.212022	-0.410644	-0.009679
 342	1.7050e-01	13.6023	34.140180	0.000222	2.222040	0.752847	0.017746
 343	1.7100e-01	13.6456	34.341835	0.000505	5.050090	1.711017	0.040331
 344	1.7150e-01	13.6873	34.478960	0.000343	3.434061	1.163491	0.027425
 345	1.7200e-01	13.7258	34.543490	0.000162	1.616029	0.547525	0.012906
 346	1.7250e-01	13.7723	34.591887	0.000121	1.212022	0.410644	0.009679
 347	1.7300e-01	13.8124	34.668516	0.000192	1.919034	0.650186	0.015326
 348	1.7350e-01	13.8413	34.813707	0.000364	3.636065	1.231932	0.029038
 349	1.7400e-01	13.8927	35.019395	0.000515	5.151092	1.745237	0.041138
 350	1.7450e-01	13.9296	35.035528	0.000040	0.404007	0.136881	0.003226
 351	1.7500e-01	13.9761	35.217017	0.000455	4.545081	1.539915	0.036298
 352	1.7550e-01	14.0114	35.342043	0.000313	3.131056	1.060830	0.025005
 353	1.7600e-01	14.0531	35.398506	0.000141	1.414025	0.479085	0.011293
 354	1.7650e-01	14.0900	35.390440	-0.000020	-0.202004	-0.068441	-0.001613
 355	1.7700e-01	14.1237	35.684856	0.000737	7.373131	2.498085	0.058883
 356	1.7750e-01	14.1606	35.813916	0.000323	3.232058	1.095051	0.025812
 357	1.7800e-01	14.2039	35.858280	0.000111	1.111020	0.376424	0.008873
 358	1.7850e-01	14.2440	35.947008	0.000222	2.222040	0.752847	0.017746
 359	1.7900e-01	14.2889	35.918776	-0.000071	-0.707013	-0.239542	-0.005646
 360	1.7950e-01	14.3274	36.076067	0.000394	3.939070	1.334593	0.031458
 361	1.8000e-01	14.3707	36.277722	0.000505	5.050090	1.711017	0.040331
 362	1.8050e-01	14.4076	36.426947	0.000374	3.737067	1.266152	0.029845
 363	1.8100e-01	14.4461	36.422913	-0.000010	-0.101002	-0.034220	-0.000807
 364	1.8150e-01	14.4878	36.568105	0.000364	3.636065	1.231932	0.029038
 365	1.8200e-01	14.5295	36.644734	0.000192	1.919034	0.650186	0.015326
 366	1.8250e-01	14.5761	36.729429	0.000212	2.121038	0.718627	0.016939
 367	1.8300e-01	14.6033	36.983514	0.000636	6.363113	2.155881	0.050817
 368	1.8350e-01	14.6499	37.064176	0.000202	2.020036	0.684407	0.016132
 369	1.8400e-01	14.6819	37.100474	0.000091	0.909016	0.307983	0.007260
 370	1.8450e-01	14.7317	37.185169	0.000212	2.121038	0.718627	0.016939
 371	1.8500e-01	14.7782	37.370692	0.000465	4.646083	1.574135	0.037105
 372	1.8550e-01	14.8039	37.499751	0.000323	3.232058	1.095051	0.025812
 373	1.8600e-01	14.8488	37.580413	0.000202	2.020036	0.684407	0.016132
 374	1.8650e-01	14.8793	37.572347	-0.000020	-0.202004	-0.068441	-0.001613
 375	1.8700e-01	14.9322	37.709472	0.000343	3.434061	1.163491	0.027425
 376	1.8750e-01	14.9691	37.870796	0.000404	4.040072	1.368813	0.032265
 377	1.8800e-01	15.0172	37.971623	0.000253	2.525045	0.855508	0.020165
 378	1.8850e-01	15.0493	38.032120	0.000152	1.515027	0.513305	0.012099
 379	1.8900e-01	15.0926	38.092616	0.000152	1.515027	0.513305	0.012099
 380	1.8950e-01	15.1311	38.266040	0.000434	4.343077	1.471474	0.034685
 381	1.9000e-01	15.1760	38.358801	0.000232	2.323041	0.787068	0.018552
 382	1.9050e-01	15.2113	38.568522	0.000525	5.252094	1.779457	0.041944
 383	1.9100e-01	15.2530	38.516092	-0.000131	-1.313023	-0.444864	-0.010486
 384	1.9150e-01	15.2851	38.592721	0.000192	1.919034	0.650186	0.015326
 385	1.9200e-01	15.3284	38.737912	0.000364	3.636065	1.231932	0.029038
 386	1.9250e-01	15.3637	39.036361	0.000747	7.474133	2.532305	0.059690
 387	1.9300e-01	15.4054	39.104924	0.000172	1.717031	0.581746	0.013713
 388	1.9350e-01	15.4407	39.213818	0.000273	2.727049	0.923949	0.021779
 389	1.9400e-01	15.4825	39.274314	0.000152	1.515027	0.513305	0.012099
 390	1.9450e-01	15.5226	39.290447	0.000040	0.404007	0.136881	0.003226
 391	1.9500e-01	15.5707	39.298513	0.000020	0.202004	0.068441	0.001613
 392	1.9550e-01	15.6188	39.520333	0.000556	5.555099	1.882118	0.044364
 393	1.9600e-01	15.6445	39.588896	0.000172	1.717031	0.581746	0.013713
 394	1.9650e-01	15.7006	39.762319	0.000434	4.343077	1.471474	0.034685
 395	1.9700e-01	15.7407	39.895411	0.000333	3.333059	1.129271	0.026618
 396	1.9750e-01	15.7632	40.028504	0.000333	3.333059	1.129271	0.026618
 397	1.9800e-01	15.8145	40.161596	0.000333	3.333059	1.129271	0.026618
 398	1.9850e-01	15.8498	40.230159	0.000172	1.717031	0.581746	0.013713
 399	1.9900e-01	15.8867	40.355185	0.000313	3.131056	1.060830	0.025005
 400	1.9950e-01	15.9284	40.476178	0.000303	3.030054	1.026610	0.024199
 401	2.0000e-01	15.9701	40.500376	0.000061	0.606011	0.205322	0.004840
 402	2.0050e-01	16.0167	40.464078	-0.000091	-0.909016	-0.307983	-0.007260
 403	2.0100e-01	16.0552	40.722197	0.000646	6.464115	2.190101	0.051624
 404	2.0150e-01	16.0937	40.823024	0.000253	2.525045	0.855508	0.020165
 405	2.0200e-01	16.1306	40.907719	0.000212	2.121038	0.718627	0.016939
 406	2.0250e-01	16.1707	41.048878	0.000354	3.535063	1.197712	0.028232
 407	2.0300e-01	16.2011	41.242466	0.000485	4.848086	1.642576	0.038718
 408	2.0350e-01	16.2605	41.254566	0.000030	0.303005	0.102661	0.002420
 409	2.0400e-01	16.2942	41.371525	0.000293	2.929052	0.992390	0.023392
 410	2.0450e-01	16.3327	41.452187	0.000202	2.020036	0.684407	0.016132
 411	2.0500e-01	16.3696	41.472353	0.000051	0.505009	0.171102	0.004033
 412	2.0550e-01	16.4113	41.601412	0.000323	3.232058	1.095051	0.025812
 413	2.0600e-01	16.4498	41.815166	0.000535	5.353095	1.813678	0.042751
 414	2.0650e-01	16.4915	41.964391	0.000374	3.737067	1.266152	0.029845
 415	2.0700e-01	16.5300	41.960358	-0.000010	-0.101002	-0.034220	-0.000807
 416	2.0750e-01	16.5669	42.117649	0.000394	3.939070	1.334593	0.031458
 417	2.0800e-01	16.6086	42.270906	0.000384	3.838068	1.300373	0.030652
 418	2.0850e-01	16.6471	42.287039	0.000040	0.404007	0.136881	0.003226
 419	2.0900e-01	16.6856	42.347535	0.000152	1.515027	0.513305	0.012099
 420	2.0950e-01	16.7305	42.573389	0.000566	5.656101	1.916339	0.045171
 421	2.1000e-01	16.7690	42.645985	0.000182	1.818032	0.615966	0.014519
 422	2.1050e-01	16.8124	42.762944	0.000293	2.929052	0.992390	0.023392
 423	2.1100e-01	16.8509	42.762944	0.000000	0.000000	0.000000	0.000000
 424	2.1150e-01	16.8894	42.908136	0.000364	3.636065	1.231932	0.029038
 425	2.1200e-01	16.9343	43.037195	0.000323	3.232058	1.095051	0.025812
 426	2.1250e-01	16.9648	43.178354	0.000354	3.535063	1.197712	0.028232
 427	2.1300e-01	17.0145	43.303380	0.000313	3.131056	1.060830	0.025005
 428	2.1350e-01	17.0482	43.259016	-0.000111	-1.111020	-0.376424	-0.008873
 429	2.1400e-01	17.0899	43.412273	0.000384	3.838068	1.300373	0.030652
 430	2.1450e-01	17.1364	43.476803	0.000162	1.616029	0.547525	0.012906
 431	2.1500e-01	17.1749	43.682491	0.000515	5.151092	1.745237	0.041138
 432	2.1550e-01	17.2054	43.779285	0.000242	2.424043	0.821288	0.019359
 433	2.1600e-01	17.2535	43.940609	0.000404	4.040072	1.368813	0.032265
 434	2.1650e-01	17.2952	43.936576	-0.000010	-0.101002	-0.034220	-0.000807
 435	2.1700e-01	17.3353	44.130165	0.000485	4.848086	1.642576	0.038718
 436	2.1750e-01	17.3754	44.235025	0.000263	2.626047	0.889729	0.020972
 437	2.1800e-01	17.4091	44.376184	0.000354	3.535063	1.197712	0.028232
 438	2.1850e-01	17.4508	44.420548	0.000111	1.111020	0.376424	0.008873
 439	2.1900e-01	17.5006	44.557673	0.000343	3.434061	1.163491	0.027425
 440	2.1950e-01	17.5295	44.602037	0.000111	1.111020	0.376424	0.008873
 441	2.2000e-01	17.5728	44.686733	0.000212	2.121038	0.718627	0.016939
 442	2.2050e-01	17.6145	44.932752	0.000616	6.161110	2.087440	0.049204
 443	2.2100e-01	17.6498	44.908553	-0.000061	-0.606011	-0.205322	-0.004840
 444	2.2150e-01	17.6947	45.118274	0.000525	5.252094	1.779457	0.041944
 445	2.2200e-01	17.7284	45.202969	0.000212	2.121038	0.718627	0.016939
 446	2.2250e-01	17.7861	45.134406	-0.000172	-1.717031	-0.581746	-0.013713
 447	2.2300e-01	17.8102	45.311863	0.000444	4.444079	1.505695	0.035491
 448	2.2350e-01	17.8471	45.469154	0.000394	3.939070	1.334593	0.031458
 449	2.2400e-01	17.8904	45.469154	0.000000	0.000000	0.000000	0.000000
 450	2.2450e-01	17.9289	45.501418	0.000081	0.808014	0.273763	0.006453
 451	2.2500e-01	17.9706	45.848265	0.000869	8.686155	2.942949	0.069369
 452	2.2550e-01	18.0075	45.884563	0.000091	0.909016	0.307983	0.007260
 453	2.2600e-01	18.0412	45.985390	0.000253	2.525045	0.855508	0.020165
 454	2.2650e-01	18.0861	46.114449	0.000323	3.232058	1.095051	0.025812
 455	2.2700e-01	18.1294	46.336270	0.000556	5.555099	1.882118	0.044364
 456	2.2750e-01	18.1760	46.295939	-0.000101	-1.010018	-0.342203	-0.008066
 457	2.2800e-01	18.2032	46.384667	0.000222	2.222040	0.752847	0.017746
 458	2.2850e-01	18.2530	46.457263	0.000182	1.818032	0.615966	0.014519
 459	2.2900e-01	18.2963	46.606487	0.000374	3.737067	1.266152	0.029845
 460	2.2950e-01	18.3219	46.606487	0.000000	0.000000	0.000000	0.000000
 461	2.3000e-01	18.3717	46.840407	0.000586	5.858104	1.984779	0.046784
 462	2.3050e-01	18.4118	46.904937	0.000162	1.616029	0.547525	0.012906
 463	2.3100e-01	18.4583	47.102559	0.000495	4.949088	1.676796	0.039524
 464	2.3150e-01	18.4936	47.106592	0.000010	0.101002	0.034220	0.000807
 465	2.3200e-01	18.5353	47.235651	0.000323	3.232058	1.095051	0.025812
 466	2.3250e-01	18.5770	47.396975	0.000404	4.040072	1.368813	0.032265
 467	2.3300e-01	18.6123	47.586530	0.000475	4.747085	1.608356	0.037911
 468	2.3350e-01	18.6508	47.530067	-0.000141	-1.414025	-0.479085	-0.011293
 469	2.3400e-01	18.6861	47.667192	0.000343	3.434061	1.163491	0.027425
 470	2.3450e-01	18.7326	47.860781	0.000485	4.848086	1.642576	0.038718
 471	2.3500e-01	18.7743	47.997906	0.000343	3.434061	1.163491	0.027425
 472	2.3550e-01	18.8080	47.917244	-0.000202	-2.020036	-0.684407	-0.016132
 473	2.3600e-01	18.8449	47.981774	0.000162	1.616029	0.547525	0.012906
 474	2.3650e-01	18.8866	48.163264	0.000455	4.545081	1.539915	0.036298
 475	2.3700e-01	18.9299	48.187462	0.000061	0.606011	0.205322	0.004840
 476	2.3750e-01	18.9540	48.316521	0.000323	3.232058	1.095051	0.025812
 477	2.3800e-01	19.0021	48.469779	0.000384	3.838068	1.300373	0.030652
 478	2.3850e-01	19.0647	48.473812	0.000010	0.101002	0.034220	0.000807
 479	2.3900e-01	19.0920	48.667401	0.000485	4.848086	1.642576	0.038718
 480	2.3950e-01	19.1321	48.691599	0.000061	0.606011	0.205322	0.004840
 481	2.4000e-01	19.1690	48.828725	0.000343	3.434061	1.163491	0.027425
 482	2.4050e-01	19.2123	49.002148	0.000434	4.343077	1.471474	0.034685
 483	2.4100e-01	19.2508	49.078777	0.000192	1.919034	0.650186	0.015326
 484	2.4150e-01	19.2893	49.219935	0.000354	3.535063	1.197712	0.028232
 485	2.4200e-01	19.3342	49.409491	0.000475	4.747085	1.608356	0.037911
 486	2.4250e-01	19.3727	49.494186	0.000212	2.121038	0.718627	0.016939
 487	2.4300e-01	19.4112	49.542583	0.000121	1.212022	0.410644	0.009679
 488	2.4350e-01	19.4529	49.566782	0.000061	0.606011	0.205322	0.004840
 489	2.4400e-01	19.5011	49.699874	0.000333	3.333059	1.129271	0.026618
 490	2.4450e-01	19.5363	49.667609	-0.000081	-0.808014	-0.273763	-0.006453
 491	2.4500e-01	19.5748	49.901529	0.000586	5.858104	1.984779	0.046784
 492	2.4550e-01	19.6053	50.159647	0.000646	6.464115	2.190101	0.051624
 493	2.4600e-01	19.6438	50.220144	0.000152	1.515027	0.513305	0.012099
 494	2.4650e-01	19.6871	50.369368	0.000374	3.737067	1.266152	0.029845
 495	2.4700e-01	19.7289	50.462130	0.000232	2.323041	0.787068	0.018552
 496	2.4750e-01	19.7722	50.454064	-0.000020	-0.202004	-0.068441	-0.001613
 497	2.4800e-01	19.8059	50.615387	0.000404	4.040072	1.368813	0.032265
 498	2.4850e-01	19.8492	50.651685	0.000091	0.909016	0.307983	0.007260
 499	2.4900e-01	19.8813	50.841241	0.000475	4.747085	1.608356	0.037911
 500	2.4950e-01	19.9358	51.042896	0.000505	5.050090	1.711017	0.040331
 501	2.5000e-01	19.9711	50.901737	-0.000354	-3.535063	-1.197712	-0.028232
 502	2.5050e-01	19.9695	51.091293	-0.000475	-4.747085	-1.608356	0.037911
 503	2.5100e-01	19.9486	50.897704	0.000485	4.848086	1.642576	-0.038718
 504	2.5150e-01	19.9117	50.829142	0.000172	1.717031	0.581746	-0.013713
 505	2.5200e-01	19.8716	50.788811	0.000101	1.010018	0.342203	-0.008066
 506	2.5250e-01	19.8299	50.732347	0.000141	1.414025	0.479085	-0.011293
 507	2.5300e-01	19.7834	50.615387	0.000293	2.929052	0.992390	-0.023392
 508	2.5350e-01	19.7545	50.575056	0.000101	1.010018	0.342203	-0.008066
 509	2.5400e-01	19.7192	50.462130	0.000283	2.828050	0.958169	-0.022585
 510	2.5450e-01	19.6743	50.329037	0.000333	3.333059	1.129271	-0.026618
 511	2.5500e-01	19.6246	50.244342	0.000212	2.121038	0.718627	-0.016939
 512	2.5550e-01	19.6005	50.179813	0.000162	1.616029	0.547525	-0.012906
 513	2.5600e-01	19.5460	49.982191	0.000495	4.949088	1.676796	-0.039524
 514	2.5650e-01	19.5139	50.070919	-0.000222	-2.222040	-0.752847	0.017746
 515	2.5700e-01	19.4722	50.018489	0.000131	1.313023	0.444864	-0.010486
 516	2.5750e-01	19.4305	49.836999	0.000455	4.545081	1.539915	-0.036298
 517	2.5800e-01	19.3952	49.615179	0.000556	5.555099	1.882118	-0.044364
 518	2.5850e-01	19.3567	49.518385	0.000242	2.424043	0.821288	-0.019359
 519	2.5900e-01	19.3118	49.506285	0.000030	0.303005	0.102661	-0.002420
 520	2.5950e-01	19.2684	49.449822	0.000141	1.414025	0.479085	-0.011293
 521	2.6000e-01	19.2380	49.348994	0.000253	2.525045	0.855508	-0.020165
 522	2.6050e-01	19.1898	49.365127	-0.000040	-0.404007	-0.136881	0.003226
 523	2.6100e-01	19.1529	49.203803	0.000404	4.040072	1.368813	-0.032265
 524	2.6150e-01	19.1112	49.042479	0.000404	4.040072	1.368813	-0.032265
 525	2.6200e-01	19.0615	48.973916	0.000172	1.717031	0.581746	-0.013713
 526	2.6250e-01	19.0310	48.897287	0.000192	1.919034	0.650186	-0.015326
 527	2.6300e-01	18.9925	48.893254	0.000010	0.101002	0.034220	-0.000807
 528	2.6350e-01	18.9492	48.663368	0.000576	5.757103	1.950559	-0.045977
 529	2.6400e-01	18.9091	48.578673	0.000212	2.121038	0.718627	-0.016939
 530	2.6450e-01	18.8706	48.377018	0.000505	5.050090	1.711017	-0.040331
 531	2.6500e-01	18.8289	48.385084	-0.000020	-0.202004	-0.068441	0.001613
 532	2.6550e-01	18.7984	48.243925	0.000354	3.535063	1.197712	-0.028232
 533	2.6600e-01	18.7519	48.110833	0.000333	3.333059	1.129271	-0.026618
 534	2.6650e-01	18.7150	48.046304	0.000162	1.616029	0.547525	-0.012906
 535	2.6700e-01	18.6669	47.985807	0.000152	1.515027	0.513305	-0.012099
 536	2.6750e-01	18.6300	47.901112	0.000212	2.121038	0.718627	-0.016939
 537	2.6800e-01	18.5979	47.808351	0.000232	2.323041	0.787068	-0.018552
 538	2.6850e-01	18.5530	47.675259	0.000333	3.333059	1.129271	-0.026618
 539	2.6900e-01	18.5112	47.582497	0.000232	2.323041	0.787068	-0.018552
 540	2.6950e-01	18.4647	47.610729	-0.000071	-0.707013	-0.239542	0.005646
 541	2.7000e-01	18.4262	47.554266	0.000141	1.414025	0.479085	-0.011293
 542	2.7050e-01	18.3957	47.384875	0.000424	4.242076	1.437254	-0.033878
 543	2.7100e-01	18.3444	47.300180	0.000212	2.121038	0.718627	-0.016939
 544	2.7150e-01	18.3075	47.191287	0.000273	2.727049	0.923949	-0.021779
 545	2.7200e-01	18.2738	47.025930	0.000414	4.141074	1.403034	-0.033071
 546	2.7250e-01	18.2273	47.033996	-0.000020	-0.202004	-0.068441	0.001613
 547	2.7300e-01	18.1984	46.884771	0.000374	3.737067	1.266152	-0.029845
 548	2.7350e-01	18.1407	46.767811	0.000293	2.929052	0.992390	-0.023392
 549	2.7400e-01	18.1150	46.554057	0.000535	5.353095	1.813678	-0.042751
 550	2.7450e-01	18.0749	46.545991	0.000020	0.202004	0.068441	-0.001613
 551	2.7500e-01	18.0155	46.513726	0.000081	0.808014	0.273763	-0.006453
 552	2.7550e-01	17.9931	46.469362	0.000111	1.111020	0.376424	-0.008873
 553	2.7600e-01	17.9546	46.348369	0.000303	3.030054	1.026610	-0.024199
 554	2.7650e-01	17.9145	46.178979	0.000424	4.242076	1.437254	-0.033878
 555	2.7700e-01	17.8679	46.090251	0.000222	2.222040	0.752847	-0.017746
 556	2.7750e-01	17.8230	46.017655	0.000182	1.818032	0.615966	-0.014519
 557	2.7800e-01	17.7958	45.953125	0.000162	1.616029	0.547525	-0.012906
 558	2.7850e-01	17.7524	45.791802	0.000404	4.040072	1.368813	-0.032265
 559	2.7900e-01	17.7139	45.662742	0.000323	3.232058	1.095051	-0.025812
 560	2.7950e-01	17.6786	45.537716	0.000313	3.131056	1.060830	-0.025005
 561	2.8000e-01	17.6241	45.461087	0.000192	1.919034	0.650186	-0.015326
 562	2.8050e-01	17.5872	45.440922	0.000051	0.505009	0.171102	-0.004033
 563	2.8100e-01	17.5535	45.392525	0.000121	1.212022	0.410644	-0.009679
 564	2.8150e-01	17.5118	45.271532	0.000303	3.030054	1.026610	-0.024199
 565	2.8200e-01	17.4637	45.138440	0.000333	3.333059	1.129271	-0.026618
 566	2.8250e-01	17.4300	45.037612	0.000253	2.525045	0.855508	-0.020165
 567	2.8300e-01	17.3883	44.880321	0.000394	3.939070	1.334593	-0.031458
 568	2.8350e-01	17.3530	44.892421	-0.000030	-0.303005	-0.102661	0.002420
 569	2.8400e-01	17.3113	44.763361	0.000323	3.232058	1.095051	-0.025812
 570	2.8450e-01	17.2696	44.658501	0.000263	2.626047	0.889729	-0.020972
 571	2.8500e-01	17.2295	44.477011	0.000455	4.545081	1.539915	-0.036298
 572	2.8550e-01	17.2054	44.376184	0.000253	2.525045	0.855508	-0.020165
 573	2.8600e-01	17.1541	44.166463	0.000525	5.252094	1.779457	-0.041944
 574	2.8650e-01	17.1124	44.178562	-0.000030	-0.303005	-0.102661	0.002420
 575	2.8700e-01	17.0674	44.154363	0.000061	0.606011	0.205322	-0.004840
 576	2.8750e-01	17.0257	44.130165	0.000061	0.606011	0.205322	-0.004840
 577	2.8800e-01	16.9936	44.017238	0.000283	2.828050	0.958169	-0.022585
 578	2.8850e-01	16.9551	43.851881	0.000414	4.141074	1.403034	-0.033071
 579	2.8900e-01	16.9070	43.738954	0.000283	2.828050	0.958169	-0.022585
 580	2.8950e-01	16.8701	43.666359	0.000182	1.818032	0.615966	-0.014519
 581	2.9000e-01	16.8316	43.742987	-0.000192	-1.919034	-0.650186	0.015326
 582	2.9050e-01	16.7867	43.496968	0.000616	6.161110	2.087440	-0.049204
 583	2.9100e-01	16.7466	43.351777	0.000364	3.636065	1.231932	-0.029038
 584	2.9150e-01	16.7049	43.339678	0.000030	0.303005	0.102661	-0.002420
 585	2.9200e-01	16.6696	43.190453	0.000374	3.737067	1.266152	-0.029845
 586	2.9250e-01	16.6199	43.101725	0.000222	2.222040	0.752847	-0.017746
 587	2.9300e-01	16.5910	43.025096	0.000192	1.919034	0.650186	-0.015326
 588	2.9350e-01	16.5445	42.976699	0.000121	1.212022	0.410644	-0.009679
 589	2.9400e-01	16.5060	42.815375	0.000404	4.040072	1.368813	-0.032265
 590	2.9450e-01	16.4723	42.746812	0.000172	1.717031	0.581746	-0.013713
 591	2.9500e-01	16.4289	42.589521	0.000394	3.939070	1.334593	-0.031458
 592	2.9550e-01	16.3840	42.391899	0.000495	4.949088	1.676796	-0.039524
 593	2.9600e-01	16.3552	42.266873	0.000313	3.131056	1.060830	-0.025005
 594	2.9650e-01	16.3086	42.238642	0.000071	0.707013	0.239542	-0.005646
 595	2.9700e-01	16.2653	42.307204	-0.000172	-1.717031	-0.581746	0.013713
 596	2.9750e-01	16.2284	42.149913	0.000394	3.939070	1.334593	-0.031458
 597	2.9800e-01	16.1899	42.153947	-0.000010	-0.101002	-0.034220	0.000807
 598	2.9850e-01	16.1482	41.976490	0.000444	4.444079	1.505695	-0.035491
 599	2.9900e-01	16.1113	41.726438	0.000626	6.262111	2.121661	-0.050010
 600	2.9950e-01	16.0744	41.653842	0.000182	1.818032	0.615966	-0.014519
 601	3.0000e-01	16.0295	41.468320	0.000465	4.646083	1.574135	-0.037105
 602	3.0050e-01	15.9974	41.444121	0.000061	0.606011	0.205322	-0.004840
 603	3.0100e-01	15.9589	41.383625	0.000152	1.515027	0.513305	-0.012099
 604	3.0150e-01	15.9268	41.230367	0.000384	3.838068	1.300373	-0.030652
 605	3.0200e-01	15.8723	41.060977	0.000424	4.242076	1.437254	-0.033878
 606	3.0250e-01	15.8290	41.028712	0.000081	0.808014	0.273763	-0.006453
 607	3.0300e-01	15.7840	40.935951	0.000232	2.323041	0.787068	-0.018552
 608	3.0350e-01	15.7455	40.843190	0.000232	2.323041	0.787068	-0.018552
 609	3.0400e-01	15.7054	40.875454	-0.000081	-0.808014	-0.273763	0.006453
 610	3.0450e-01	15.6718	40.818991	0.000141	1.414025	0.479085	-0.011293
 611	3.0500e-01	15.6300	40.689932	0.000323	3.232058	1.095051	-0.025812
 612	3.0550e-01	15.5899	40.468111	0.000556	5.555099	1.882118	-0.044364
 613	3.0600e-01	15.5434	40.427780	0.000101	1.010018	0.342203	-0.008066
 614	3.0650e-01	15.5129	40.274523	0.000384	3.838068	1.300373	-0.030652
 615	3.0700e-01	15.4696	40.209993	0.000162	1.616029	0.547525	-0.012906
 616	3.0750e-01	15.4295	40.032537	0.000444	4.444079	1.505695	-0.035491
 617	3.0800e-01	15.3942	40.040603	-0.000020	-0.202004	-0.068441	0.001613
 618	3.0850e-01	15.3493	39.947842	0.000232	2.323041	0.787068	-0.018552
 619	3.0900e-01	15.3092	39.693756	0.000636	6.363113	2.155881	-0.050817
 620	3.0950e-01	15.2739	39.770385	-0.000192	-1.919034	-0.650186	0.015326
 621	3.1000e-01	15.2386	39.576797	0.000485	4.848086	1.642576	-0.038718
 622	3.1050e-01	15.1985	39.556631	0.000051	0.505009	0.171102	-0.004033
 623	3.1100e-01	15.1375	39.536466	0.000051	0.505009	0.171102	-0.004033
 624	3.1150e-01	15.1167	39.306579	0.000576	5.757103	1.950559	-0.045977
 625	3.1200e-01	15.0670	39.173487	0.000333	3.333059	1.129271	-0.026618
 626	3.1250e-01	15.0252	39.096858	0.000192	1.919034	0.650186	-0.015326
 627	3.1300e-01	14.9819	39.048461	0.000121	1.212022	0.410644	-0.009679
 628	3.1350e-01	14.9563	38.854872	0.000485	4.848086	1.642576	-0.038718
 629	3.1400e-01	14.9178	38.911335	-0.000141	-1.414025	-0.479085	0.011293
 630	3.1450e-01	14.8712	38.778243	0.000333	3.333059	1.129271	-0.026618
 631	3.1500e-01	14.8327	38.572555	0.000515	5.151092	1.745237	-0.041138
 632	3.1550e-01	14.7894	38.451562	0.000303	3.030054	1.026610	-0.024199
 633	3.1600e-01	14.7381	38.459628	-0.000020	-0.202004	-0.068441	0.001613
 634	3.1650e-01	14.7076	38.382999	0.000192	1.919034	0.650186	-0.015326
 635	3.1700e-01	14.6723	38.209576	0.000434	4.343077	1.471474	-0.034685
 636	3.1750e-01	14.6322	38.076484	0.000333	3.333059	1.129271	-0.026618
 637	3.1800e-01	14.5921	37.911127	0.000414	4.141074	1.403034	-0.033071
 638	3.1850e-01	14.5440	37.878862	0.000081	0.808014	0.273763	-0.006453
 639	3.1900e-01	14.5103	37.850630	0.000071	0.707013	0.239542	-0.005646
 640	3.1950e-01	14.4750	37.604611	0.000616	6.161110	2.087440	-0.049204
 641	3.2000e-01	14.4237	37.576380	0.000071	0.707013	0.239542	-0.005646
 642	3.2050e-01	14.3900	37.556214	0.000051	0.505009	0.171102	-0.004033
 643	3.2100e-01	14.3547	37.354559	0.000505	5.050090	1.711017	-0.040331
 644	3.2150e-01	14.3001	37.229533	0.000313	3.131056	1.060830	-0.025005
 645	3.2200e-01	14.2729	37.249699	-0.000051	-0.505009	-0.171102	0.004033
 646	3.2250e-01	14.2263	37.019812	0.000576	5.757103	1.950559	-0.045977
 647	3.2300e-01	14.1959	37.007713	0.000030	0.303005	0.102661	-0.002420
 648	3.2350e-01	14.1558	36.886720	0.000303	3.030054	1.026610	-0.024199
 649	3.2400e-01	14.1092	36.697164	0.000475	4.747085	1.608356	-0.037911
 650	3.2450e-01	14.0787	36.644734	0.000131	1.313023	0.444864	-0.010486
 651	3.2500e-01	14.0274	36.584237	0.000152	1.515027	0.513305	-0.012099
 652	3.2550e-01	13.9873	36.451145	0.000333	3.333059	1.129271	-0.026618
 653	3.2600e-01	13.9552	36.459211	-0.000020	-0.202004	-0.068441	0.001613
 654	3.2650e-01	13.9135	36.249490	0.000525	5.252094	1.779457	-0.041944
 655	3.2700e-01	13.8734	36.193027	0.000141	1.414025	0.479085	-0.011293
 656	3.2750e-01	13.8269	36.063968	0.000323	3.232058	1.095051	-0.025812
 657	3.2800e-01	13.7884	36.011537	0.000131	1.313023	0.444864	-0.010486
 658	3.2850e-01	13.7531	35.878445	0.000333	3.333059	1.129271	-0.026618
 659	3.2900e-01	13.7114	35.793750	0.000212	2.121038	0.718627	-0.016939
 660	3.2950e-01	13.6681	35.668724	0.000313	3.131056	1.060830	-0.025005
 661	3.3000e-01	13.6344	35.515466	0.000384	3.838068	1.300373	-0.030652
 662	3.3050e-01	13.5830	35.471102	0.000111	1.111020	0.376424	-0.008873
 663	3.3100e-01	13.5542	35.301712	0.000424	4.242076	1.437254	-0.033878
 664	3.3150e-01	13.5125	35.204918	0.000242	2.424043	0.821288	-0.019359
 665	3.3200e-01	13.4659	35.108123	0.000242	2.424043	0.821288	-0.019359
 666	3.3250e-01	13.4338	35.108123	-0.000000	-0.000000	-0.000000	0.000000
 667	3.3300e-01	13.3889	34.821773	0.000717	7.171128	2.429644	-0.057270
 668	3.3350e-01	13.3552	34.761277	0.000152	1.515027	0.513305	-0.012099
 669	3.3400e-01	13.3119	34.716913	0.000111	1.111020	0.376424	-0.008873
 670	3.3450e-01	13.2734	34.712880	0.000010	0.101002	0.034220	-0.000807
 671	3.3500e-01	13.2269	34.523324	0.000475	4.747085	1.608356	-0.037911
 672	3.3550e-01	13.1916	34.410397	0.000283	2.828050	0.958169	-0.022585
 673	3.3600e-01	13.1515	34.249073	0.000404	4.040072	1.368813	-0.032265
 674	3.3650e-01	13.1114	34.156312	0.000232	2.323041	0.787068	-0.018552
 675	3.3700e-01	13.0729	34.039352	0.000293	2.929052	0.992390	-0.023392
 676	3.3750e-01	13.0264	34.071617	-0.000081	-0.808014	-0.273763	0.006453
 677	3.3800e-01	12.9895	33.845763	0.000566	5.656101	1.916339	-0.045171
 678	3.3850e-01	12.9478	33.849797	-0.000010	-0.101002	-0.034220	0.000807
 679	3.3900e-01	12.9077	33.619910	0.000576	5.757103	1.950559	-0.045977
 680	3.3950e-01	12.8692	33.539248	0.000202	2.020036	0.684407	-0.016132
 681	3.4000e-01	12.8339	33.519082	0.000051	0.505009	0.171102	-0.004033
 682	3.4050e-01	12.7905	33.373891	0.000364	3.636065	1.231932	-0.029038
 683	3.4100e-01	12.7520	33.402123	-0.000071	-0.707013	-0.239542	0.005646
 684	3.4150e-01	12.7087	33.184335	0.000545	5.454097	1.847898	-0.043557
 685	3.4200e-01	12.6670	33.018978	0.000414	4.141074	1.403034	-0.033071
 686	3.4250e-01	12.6317	32.994780	0.000061	0.606011	0.205322	-0.004840
 687	3.4300e-01	12.5948	32.893952	0.000253	2.525045	0.855508	-0.020165
 688	3.4350e-01	12.5547	32.676165	0.000545	5.454097	1.847898	-0.043557
 689	3.4400e-01	12.5082	32.708430	-0.000081	-0.808014	-0.273763	0.006453
 690	3.4450e-01	12.4745	32.740694	-0.000081	-0.808014	-0.273763	0.006453
 691	3.4500e-01	12.4312	32.502742	0.000596	5.959106	2.019000	-0.047591
 692	3.4550e-01	12.3911	32.369649	0.000333	3.333059	1.129271	-0.026618
 693	3.4600e-01	12.3462	32.329318	0.000101	1.010018	0.342203	-0.008066
 694	3.4650e-01	12.3173	32.268822	0.000152	1.515027	0.513305	-0.012099
 695	3.4700e-01	12.2820	32.095399	0.000434	4.343077	1.471474	-0.034685
 696	3.4750e-01	12.2403	31.845347	0.000626	6.262111	2.121661	-0.050010
 697	3.4800e-01	12.1954	31.809049	0.000091	0.909016	0.307983	-0.007260
 698	3.4850e-01	12.1537	31.716287	0.000232	2.323041	0.787068	-0.018552
 699	3.4900e-01	12.1152	31.563030	0.000384	3.838068	1.300373	-0.030652
 700	3.4950e-01	12.0719	31.546897	0.000040	0.404007	0.136881	-0.003226
 701	3.5000e-01	12.0253	31.409772	0.000343	3.434061	1.163491	-0.027425
 702	3.5050e-01	11.9981	31.256514	0.000384	3.838068	1.300373	-0.030652
 703	3.5100e-01	11.9483	31.179885	0.000192	1.919034	0.650186	-0.015326
 704	3.5150e-01	11.9018	31.167786	0.000030	0.303005	0.102661	-0.002420
 705	3.5200e-01	11.8713	31.159720	0.000020	0.202004	0.068441	-0.001613
 706	3.5250e-01	11.8344	30.949999	0.000525	5.252094	1.779457	-0.041944
 707	3.5300e-01	11.7879	30.829006	0.000303	3.030054	1.026610	-0.024199
 708	3.5350e-01	11.7526	30.724145	0.000263	2.626047	0.889729	-0.020972
 709	3.5400e-01	11.7077	30.659616	0.000162	1.616029	0.547525	-0.012906
 710	3.5450e-01	11.6676	30.482159	0.000444	4.444079	1.505695	-0.035491
 711	3.5500e-01	11.6211	30.260339	0.000556	5.555099	1.882118	-0.044364
 712	3.5550e-01	11.5906	30.135313	0.000313	3.131056	1.060830	-0.025005
 713	3.5600e-01	11.5537	30.107081	0.000071	0.707013	0.239542	-0.005646
 714	3.5650e-01	11.5120	30.115147	-0.000020	-0.202004	-0.068441	0.001613
 715	3.5700e-01	11.4735	30.018353	0.000242	2.424043	0.821288	-0.019359
 716	3.5750e-01	11.4334	29.969956	0.000121	1.212022	0.410644	-0.009679
 717	3.5800e-01	11.3933	29.816698	0.000384	3.838068	1.300373	-0.030652
 718	3.5850e-01	11.3532	29.683606	0.000333	3.333059	1.129271	-0.026618
 719	3.5900e-01	11.3098	29.542447	0.000354	3.535063	1.197712	-0.028232
 720	3.5950e-01	11.2697	29.550513	-0.000020	-0.202004	-0.068441	0.001613
 721	3.6000e-01	11.2152	29.340792	0.000525	5.252094	1.779457	-0.041944
 722	3.6050e-01	11.1847	29.163336	0.000444	4.444079	1.505695	-0.035491
 723	3.6100e-01	11.1526	29.086707	0.000192	1.919034	0.650186	-0.015326
 724	3.6150e-01	11.1157	29.018144	0.000172	1.717031	0.581746	-0.013713
 725	3.6200e-01	11.0756	28.949582	0.000172	1.717031	0.581746	-0.013713
 726	3.6250e-01	11.0291	28.893118	0.000141	1.414025	0.479085	-0.011293
 727	3.6300e-01	10.9874	28.764059	0.000323	3.232058	1.095051	-0.025812
 728	3.6350e-01	10.9537	28.639033	0.000313	3.131056	1.060830	-0.025005
 729	3.6400e-01	10.9120	28.501908	0.000343	3.434061	1.163491	-0.027425
 730	3.6450e-01	10.8639	28.372849	0.000323	3.232058	1.095051	-0.025812
 731	3.6500e-01	10.8189	28.267988	0.000263	2.626047	0.889729	-0.020972
 732	3.6550e-01	10.7837	28.247823	0.000051	0.505009	0.171102	-0.004033
 733	3.6600e-01	10.7500	28.110697	0.000343	3.434061	1.163491	-0.027425
 734	3.6650e-01	10.7115	27.989704	0.000303	3.030054	1.026610	-0.024199
 735	3.6700e-01	10.6698	27.905009	0.000212	2.121038	0.718627	-0.016939
 736	3.6750e-01	10.6313	27.683189	0.000556	5.555099	1.882118	-0.044364
 737	3.6800e-01	10.5911	27.598494	0.000212	2.121038	0.718627	-0.016939
 738	3.6850e-01	10.5526	27.521865	0.000192	1.919034	0.650186	-0.015326
 739	3.6900e-01	10.5077	27.441203	0.000202	2.020036	0.684407	-0.016132
 740	3.6950e-01	10.4724	27.425070	0.000040	0.404007	0.136881	-0.003226
 741	3.7000e-01	10.4275	27.114522	0.000778	7.777138	2.634966	-0.062110
 742	3.7050e-01	10.3906	27.070158	0.000111	1.111020	0.376424	-0.008873
 743	3.7100e-01	10.3505	27.049992	0.000051	0.505009	0.171102	-0.004033
 744	3.7150e-01	10.3136	26.981430	0.000172	1.717031	0.581746	-0.013713
 745	3.7200e-01	10.2719	26.916900	0.000162	1.616029	0.547525	-0.012906
 746	3.7250e-01	10.2270	26.727344	0.000475	4.747085	1.608356	-0.037911
 747	3.7300e-01	10.1885	26.513590	0.000535	5.353095	1.813678	-0.042751
 748	3.7350e-01	10.1436	26.570054	-0.000141	-1.414025	-0.479085	0.011293
 749	3.7400e-01	10.1179	26.457127	0.000283	2.828050	0.958169	-0.022585
 750	3.7450e-01	10.0714	26.303869	0.000384	3.838068	1.300373	-0.030652
 751	3.7500e-01	10.0265	26.194975	0.000273	2.727049	0.923949	-0.021779
 752	3.7550e-01	9.9799	26.082049	0.000283	2.828050	0.958169	-0.022585
 753	3.7600e-01	9.9478	25.965089	0.000293	2.929052	0.992390	-0.023392
 754	3.7650e-01	9.9110	25.827963	0.000343	3.434061	1.163491	-0.027425
 755	3.7700e-01	9.8741	25.771500	0.000141	1.414025	0.479085	-0.011293
 756	3.7750e-01	9.8259	25.787632	-0.000040	-0.404007	-0.136881	0.003226
 757	3.7800e-01	9.7922	25.598077	0.000475	4.747085	1.608356	-0.037911
 758	3.7850e-01	9.7569	25.553713	0.000111	1.111020	0.376424	-0.008873
 759	3.7900e-01	9.7072	25.400455	0.000384	3.838068	1.300373	-0.030652
 760	3.7950e-01	9.6703	25.255263	0.000364	3.636065	1.231932	-0.029038
 761	3.8000e-01	9.6286	25.206866	0.000121	1.212022	0.410644	-0.009679
 762	3.8050e-01	9.5917	24.968913	0.000596	5.959106	2.019000	-0.047591
 763	3.8100e-01	9.5516	24.868086	0.000253	2.525045	0.855508	-0.020165
 764	3.8150e-01	9.5003	24.759192	0.000273	2.727049	0.923949	-0.021779
 765	3.8200e-01	9.4650	24.751126	0.000020	0.202004	0.068441	-0.001613
 766	3.8250e-01	9.4233	24.521240	0.000576	5.757103	1.950559	-0.045977
 767	3.8300e-01	9.3944	24.549471	-0.000071	-0.707013	-0.239542	0.005646
 768	3.8350e-01	9.3511	24.367982	0.000455	4.545081	1.539915	-0.036298
 769	3.8400e-01	9.2965	24.327651	0.000101	1.010018	0.342203	-0.008066
 770	3.8450e-01	9.2789	24.178426	0.000374	3.737067	1.266152	-0.029845
 771	3.8500e-01	9.2356	23.996937	0.000455	4.545081	1.539915	-0.036298
 772	3.8550e-01	9.1890	23.984837	0.000030	0.303005	0.102661	-0.002420
 773	3.8600e-01	9.1457	23.851745	0.000333	3.333059	1.129271	-0.026618
 774	3.8650e-01	9.1040	23.843679	0.000020	0.202004	0.068441	-0.001613
 775	3.8700e-01	9.0719	23.549263	0.000737	7.373131	2.498085	-0.058883
 776	3.8750e-01	9.0286	23.484733	0.000162	1.616029	0.547525	-0.012906
 777	3.8800e-01	8.9853	23.541197	-0.000141	-1.414025	-0.479085	0.011293
 778	3.8850e-01	8.9500	23.428270	0.000283	2.828050	0.958169	-0.022585
 779	3.8900e-01	8.9131	23.307277	0.000303	3.030054	1.026610	-0.024199
 780	3.8950e-01	8.8746	23.117721	0.000475	4.747085	1.608356	-0.037911
 781	3.9000e-01	8.8233	22.908000	0.000525	5.252094	1.779457	-0.041944
 782	3.9050e-01	8.7832	22.871702	0.000091	0.909016	0.307983	-0.007260
 783	3.9100e-01	8.7447	22.795073	0.000192	1.919034	0.650186	-0.015326
 784	3.9150e-01	8.7078	22.621650	0.000434	4.343077	1.471474	-0.034685
 785	3.9200e-01	8.6693	22.585352	0.000091	0.909016	0.307983	-0.007260
 786	3.9250e-01	8.6356	22.407896	0.000444	4.444079	1.505695	-0.035491
 787	3.9300e-01	8.5955	22.242539	0.000414	4.141074	1.403034	-0.033071
 788	3.9350e-01	8.5474	22.206241	0.000091	0.909016	0.307983	-0.007260
 789	3.9400e-01	8.5137	22.149778	0.000141	1.414025	0.479085	-0.011293
 790	3.9450e-01	8.4623	22.024751	0.000313	3.131056	1.060830	-0.025005
 791	3.9500e-01	8.4351	22.036851	-0.000030	-0.303005	-0.102661	0.002420
 792	3.9550e-01	8.3885	21.710170	0.000818	8.181146	2.771847	-0.065336
 793	3.9600e-01	8.3468	21.597243	0.000283	2.828050	0.958169	-0.022585
 794	3.9650e-01	8.3115	21.589177	0.000020	0.202004	0.068441	-0.001613
 795	3.9700e-01	8.2682	21.573044	0.000040	0.404007	0.136881	-0.003226
 796	3.9750e-01	8.2281	21.448018	0.000313	3.131056	1.060830	-0.025005
 797	3.9800e-01	8.1848	21.310893	0.000343	3.434061	1.163491	-0.027425
 798	3.9850e-01	8.1639	21.210066	0.000253	2.525045	0.855508	-0.020165
 799	3.9900e-01	8.1110	21.105205	0.000263	2.626047	0.889729	-0.020972
 800	3.9950e-01	8.0693	21.028576	0.000192	1.919034	0.650186	-0.015326
 801	4.0000e-01	8.0276	20.810789	0.000545	5.454097	1.847898	-0.043557
 802	4.0050e-01	7.9923	20.685763	0.000313	3.131056	1.060830	-0.025005
 803	4.0100e-01	7.9522	20.673663	0.000030	0.303005	0.102661	-0.002420
 804	4.0150e-01	7.9057	20.580902	0.000232	2.323041	0.787068	-0.018552
 805	4.0200e-01	7.8688	20.419578	0.000404	4.040072	1.368813	-0.032265
 806	4.0250e-01	7.8271	20.290519	0.000323	3.232058	1.095051	-0.025812
 807	4.0300e-01	7.7934	20.197758	0.000232	2.323041	0.787068	-0.018552
 808	4.0350e-01	7.7388	20.084831	0.000283	2.828050	0.958169	-0.022585
 809	4.0400e-01	7.7180	19.915441	0.000424	4.242076	1.437254	-0.033878
 810	4.0450e-01	7.6602	19.798481	0.000293	2.929052	0.992390	-0.023392
 811	4.0500e-01	7.6329	19.762183	0.000091	0.909016	0.307983	-0.007260
 812	4.0550e-01	7.5848	19.681521	0.000202	2.020036	0.684407	-0.016132
 813	4.0600e-01	7.5527	19.576661	0.000263	2.626047	0.889729	-0.020972
 814	4.0650e-01	7.5046	19.415337	0.000404	4.040072	1.368813	-0.032265
 815	4.0700e-01	7.4677	19.354840	0.000152	1.515027	0.513305	-0.012099
 816	4.0750e-01	7.4324	19.185450	0.000424	4.242076	1.437254	-0.033878
 817	4.0800e-01	7.3923	19.072523	0.000283	2.828050	0.958169	-0.022585
 818	4.0850e-01	7.3522	18.983795	0.000222	2.222040	0.752847	-0.017746
 819	4.0900e-01	7.3137	18.971696	0.000030	0.303005	0.102661	-0.002420
 820	4.0950e-01	7.2672	18.822471	0.000374	3.737067	1.266152	-0.029845
 821	4.1000e-01	7.2239	18.649048	0.000434	4.343077	1.471474	-0.034685
 822	4.1050e-01	7.1950	18.653081	-0.000010	-0.101002	-0.034220	0.000807
 823	4.1100e-01	7.1436	18.503856	0.000374	3.737067	1.266152	-0.029845
 824	4.1150e-01	7.1116	18.326400	0.000444	4.444079	1.505695	-0.035491
 825	4.1200e-01	7.0682	18.205407	0.000303	3.030054	1.026610	-0.024199
 826	4.1250e-01	7.0362	18.088447	0.000293	2.929052	0.992390	-0.023392
 827	4.1300e-01	6.9993	18.011818	0.000192	1.919034	0.650186	-0.015326
 828	4.1350e-01	6.9624	17.822263	0.000475	4.747085	1.608356	-0.037911
 829	4.1400e-01	6.9062	17.745634	0.000192	1.919034	0.650186	-0.015326
 830	4.1450e-01	6.8677	17.826296	-0.000202	-2.020036	-0.684407	0.016132
 831	4.1500e-01	6.8324	17.596409	0.000576	5.757103	1.950559	-0.045977
 832	4.1550e-01	6.7939	17.410887	0.000465	4.646083	1.574135	-0.037105
 833	4.1600e-01	6.7458	17.310059	0.000253	2.525045	0.855508	-0.020165
 834	4.1650e-01	6.7137	17.354423	-0.000111	-1.111020	-0.376424	0.008873
 835	4.1700e-01	6.6736	17.156801	0.000495	4.949088	1.676796	-0.039524
 836	4.1750e-01	6.6335	17.064040	0.000232	2.323041	0.787068	-0.018552
 837	4.1800e-01	6.5918	16.983378	0.000202	2.020036	0.684407	-0.016132
 838	4.1850e-01	6.5501	17.080173	-0.000242	-2.424043	-0.821288	0.019359
 839	4.1900e-01	6.5052	16.842220	0.000596	5.959106	2.019000	-0.047591
 840	4.1950e-01	6.4651	16.567969	0.000687	6.868122	2.326983	-0.054850
 841	4.2000e-01	6.4330	16.543770	0.000061	0.606011	0.205322	-0.004840
 842	4.2050e-01	6.3929	16.426811	0.000293	2.929052	0.992390	-0.023392
 843	4.2100e-01	6.3496	16.281619	0.000364	3.636065	1.231932	-0.029038
 844	4.2150e-01	6.3094	16.188858	0.000232	2.323041	0.787068	-0.018552
 845	4.2200e-01	6.2645	16.148527	0.000101	1.010018	0.342203	-0.008066
 846	4.2250e-01	6.2437	15.954938	0.000485	4.848086	1.642576	-0.038718
 847	4.2300e-01	6.1955	15.858144	0.000242	2.424043	0.821288	-0.019359
 848	4.2350e-01	6.1522	15.725051	0.000333	3.333059	1.129271	-0.026618
 849	4.2400e-01	6.1105	15.716985	0.000020	0.202004	0.068441	-0.001613
 850	4.2450e-01	6.0672	15.507264	0.000525	5.252094	1.779457	-0.041944
 851	4.2500e-01	6.0399	15.567761	-0.000152	-1.515027	-0.513305	0.012099
 852	4.2550e-01	5.9998	15.414503	0.000384	3.838068	1.300373	-0.030652
 853	4.2600e-01	5.9469	15.285444	0.000323	3.232058	1.095051	-0.025812
 854	4.2650e-01	5.9084	15.075723	0.000525	5.252094	1.779457	-0.041944
 855	4.2700e-01	5.8603	14.938597	0.000343	3.434061	1.163491	-0.027425
 856	4.2750e-01	5.8330	14.866001	0.000182	1.818032	0.615966	-0.014519
 857	4.2800e-01	5.7849	14.789373	0.000192	1.919034	0.650186	-0.015326
 858	4.2850e-01	5.7480	14.716777	0.000182	1.818032	0.615966	-0.014519
 859	4.2900e-01	5.7239	14.515122	0.000505	5.050090	1.711017	-0.040331
 860	4.2950e-01	5.6742	14.458658	0.000141	1.414025	0.479085	-0.011293
 861	4.3000e-01	5.6357	14.446559	0.000030	0.303005	0.102661	-0.002420
 862	4.3050e-01	5.5827	14.390096	0.000141	1.414025	0.479085	-0.011293
 863	4.3100e-01	5.5426	14.176342	0.000535	5.353095	1.813678	-0.042751
 864	4.3150e-01	5.5041	13.958554	0.000545	5.454097	1.847898	-0.043557
 865	4.3200e-01	5.4704	13.966620	-0.000020	-0.202004	-0.068441	0.001613
 866	4.3250e-01	5.4400	13.849661	0.000293	2.929052	0.992390	-0.023392
 867	4.3300e-01	5.3822	13.656072	0.000485	4.848086	1.642576	-0.038718
 868	4.3350e-01	5.3549	13.571377	0.000212	2.121038	0.718627	-0.016939
 869	4.3400e-01	5.3164	13.494748	0.000192	1.919034	0.650186	-0.015326
 870	4.3450e-01	5.2699	13.297126	0.000495	4.949088	1.676796	-0.039524
 871	4.3500e-01	5.2314	13.155968	0.000354	3.535063	1.197712	-0.028232
 872	4.3550e-01	5.1961	13.091438	0.000162	1.616029	0.547525	-0.012906
 873	4.3600e-01	5.1496	13.010776	0.000202	2.020036	0.684407	-0.016132
 874	4.3650e-01	5.1111	12.958346	0.000131	1.313023	0.444864	-0.010486
 875	4.3700e-01	5.0774	12.897849	0.000152	1.515027	0.513305	-0.012099
 876	4.3750e-01	5.0373	12.792989	0.000263	2.626047	0.889729	-0.020972
 877	4.3800e-01	4.9892	12.651830	0.000354	3.535063	1.197712	-0.028232
 878	4.3850e-01	4.9442	12.575201	0.000192	1.919034	0.650186	-0.015326
 879	4.3900e-01	4.9186	12.345315	0.000576	5.757103	1.950559	-0.045977
 880	4.3950e-01	4.8624	12.280785	0.000162	1.616029	0.547525	-0.012906
 881	4.4000e-01	4.8287	12.236421	0.000111	1.111020	0.376424	-0.008873
 882	4.4050e-01	4.7951	11.978303	0.000646	6.464115	2.190101	-0.051624
 883	4.4100e-01	4.7533	11.889575	0.000222	2.222040	0.752847	-0.017746
 884	4.4150e-01	4.7004	11.784714	0.000263	2.626047	0.889729	-0.020972
 885	4.4200e-01	4.6715	11.655655	0.000323	3.232058	1.095051	-0.025812
 886	4.4250e-01	4.6346	11.566927	0.000222	2.222040	0.752847	-0.017746
 887	4.4300e-01	4.5929	11.437868	0.000323	3.232058	1.095051	-0.025812
 888	4.4350e-01	4.5544	11.397537	0.000101	1.010018	0.342203	-0.008066
 889	4.4400e-01	4.5095	11.195882	0.000505	5.050090	1.711017	-0.040331
 890	4.4450e-01	4.4678	11.139418	0.000141	1.414025	0.479085	-0.011293
 891	4.4500e-01	4.4325	11.086988	0.000131	1.313023	0.444864	-0.010486
 892	4.4550e-01	4.3924	10.998260	0.000222	2.222040	0.752847	-0.017746
 893	4.4600e-01	4.3539	10.828870	0.000424	4.242076	1.437254	-0.033878
 894	4.4650e-01	4.3058	10.679645	0.000374	3.737067	1.266152	-0.029845
 895	4.4700e-01	4.2657	10.502189	0.000444	4.444079	1.505695	-0.035491
 896	4.4750e-01	4.2207	10.433626	0.000172	1.717031	0.581746	-0.013713
 897	4.4800e-01	4.1903	10.373130	0.000152	1.515027	0.513305	-0.012099
 898	4.4850e-01	4.1485	10.348931	0.000061	0.606011	0.205322	-0.004840
 899	4.4900e-01	4.1020	10.171475	0.000444	4.444079	1.505695	-0.035491
 900	4.4950e-01	4.0780	9.921423	0.000626	6.262111	2.121661	-0.050010
 901	4.5000e-01	4.0379	9.836727	0.000212	2.121038	0.718627	-0.016939
 902	4.5050e-01	3.9897	9.723801	0.000283	2.828050	0.958169	-0.022585
 903	4.5100e-01	3.9544	9.663304	0.000152	1.515027	0.513305	-0.012099
 904	4.5150e-01	3.9191	9.518113	0.000364	3.636065	1.231932	-0.029038
 905	4.5200e-01	3.8742	9.554411	-0.000091	-0.909016	-0.307983	0.007260
 906	4.5250e-01	3.8293	9.340656	0.000535	5.353095	1.813678	-0.042751
 907	4.5300e-01	3.7956	9.227730	0.000283	2.828050	0.958169	-0.022585
 908	4.5350e-01	3.7523	9.235796	-0.000020	-0.202004	-0.068441	0.001613
 909	4.5400e-01	3.7074	9.159167	0.000192	1.919034	0.650186	-0.015326
 910	4.5450e-01	3.6657	8.973644	0.000465	4.646083	1.574135	-0.037105
 911	4.5500e-01	3.6288	8.892982	0.000202	2.020036	0.684407	-0.016132
 912	4.5550e-01	3.5871	8.743758	0.000374	3.737067	1.266152	-0.029845
 913	4.5600e-01	3.5454	8.542103	0.000505	5.050090	1.711017	-0.040331
 914	4.5650e-01	3.5117	8.465474	0.000192	1.919034	0.650186	-0.015326
 915	4.5700e-01	3.4651	8.356580	0.000273	2.727049	0.923949	-0.021779
 916	4.5750e-01	3.4266	8.360613	-0.000010	-0.101002	-0.034220	0.000807
 917	4.5800e-01	3.3785	8.142826	0.000545	5.454097	1.847898	-0.043557
 918	4.5850e-01	3.3528	8.009734	0.000333	3.333059	1.129271	-0.026618
 919	4.5900e-01	3.3208	7.973436	0.000091	0.909016	0.307983	-0.007260
 920	4.5950e-01	3.2646	7.868575	0.000263	2.626047	0.889729	-0.020972
 921	4.6000e-01	3.2406	7.804046	0.000162	1.616029	0.547525	-0.012906
 922	4.6050e-01	3.1860	7.614490	0.000475	4.747085	1.608356	-0.037911
 923	4.6100e-01	3.1539	7.493497	0.000303	3.030054	1.026610	-0.024199
 924	4.6150e-01	3.1026	7.336206	0.000394	3.939070	1.334593	-0.031458
 925	4.6200e-01	3.0609	7.287809	0.000121	1.212022	0.410644	-0.009679
 926	4.6250e-01	3.0320	7.312008	-0.000061	-0.606011	-0.205322	0.004840
 927	4.6300e-01	2.9951	7.001459	0.000778	7.777138	2.634966	-0.062110
 928	4.6350e-01	2.9502	6.848201	0.000384	3.838068	1.300373	-0.030652
 929	4.6400e-01	2.9069	6.928863	-0.000202	-2.020036	-0.684407	0.016132
 930	4.6450e-01	2.8732	6.755440	0.000434	4.343077	1.471474	-0.034685
 931	4.6500e-01	2.8395	6.646546	0.000273	2.727049	0.923949	-0.021779
 932	4.6550e-01	2.7882	6.541686	0.000263	2.626047	0.889729	-0.020972
 933	4.6600e-01	2.7561	6.364230	0.000444	4.444079	1.505695	-0.035491
 934	4.6650e-01	2.7128	6.231137	0.000333	3.333059	1.129271	-0.026618
 935	4.6700e-01	2.6614	6.150475	0.000202	2.020036	0.684407	-0.016132
 936	4.6750e-01	2.6309	6.005284	0.000364	3.636065	1.231932	-0.029038
 937	4.6800e-01	2.5956	5.936721	0.000172	1.717031	0.581746	-0.013713
 938	4.6850e-01	2.5475	5.847993	0.000222	2.222040	0.752847	-0.017746
 939	4.6900e-01	2.5042	5.775397	0.000182	1.818032	0.615966	-0.014519
 940	4.6950e-01	2.4705	5.739099	0.000091	0.909016	0.307983	-0.007260
 941	4.7000e-01	2.4336	5.638272	0.000253	2.525045	0.855508	-0.020165
 942	4.7050e-01	2.3887	5.468882	0.000424	4.242076	1.437254	-0.033878
 943	4.7100e-01	2.3454	5.400319	0.000172	1.717031	0.581746	-0.013713
 944	4.7150e-01	2.2989	5.291425	0.000273	2.727049	0.923949	-0.021779
 945	4.7200e-01	2.2684	5.170432	0.000303	3.030054	1.026610	-0.024199
 946	4.7250e-01	2.2331	5.049439	0.000303	3.030054	1.026610	-0.024199
 947	4.7300e-01	2.1914	4.892149	0.000394	3.939070	1.334593	-0.031458
 948	4.7350e-01	2.1561	4.746957	0.000364	3.636065	1.231932	-0.029038
 949	4.7400e-01	2.1160	4.541269	0.000515	5.151092	1.745237	-0.041138
 950	4.7450e-01	2.0695	4.428342	0.000283	2.828050	0.958169	-0.022585
 951	4.7500e-01	2.0278	4.388011	0.000101	1.010018	0.342203	-0.008066
 952	4.7550e-01	1.9941	4.355746	0.000081	0.808014	0.273763	-0.006453
 953	4.7600e-01	1.9475	4.238787	0.000293	2.929052	0.992390	-0.023392
 954	4.7650e-01	1.9122	4.121827	0.000293	2.929052	0.992390	-0.023392
 955	4.7700e-01	1.8721	3.952437	0.000424	4.242076	1.437254	-0.033878
 956	4.7750e-01	1.8272	3.867742	0.000212	2.121038	0.718627	-0.016939
 957	4.7800e-01	1.7967	3.637855	0.000576	5.757103	1.950559	-0.045977
 958	4.7850e-01	1.7486	3.476531	0.000404	4.040072	1.368813	-0.032265
 959	4.7900e-01	1.7053	3.549127	-0.000182	-1.818032	-0.615966	0.014519
 960	4.7950e-01	1.6732	3.512829	0.000091	0.909016	0.307983	-0.007260
 961	4.8000e-01	1.6283	3.295042	0.000545	5.454097	1.847898	-0.043557
 962	4.8050e-01	1.5850	3.278909	0.000040	0.404007	0.136881	-0.003226
 963	4.8100e-01	1.5497	3.077254	0.000505	5.050090	1.711017	-0.040331
 964	4.8150e-01	1.5080	2.899798	0.000444	4.444079	1.505695	-0.035491
 965	4.8200e-01	1.4727	2.875599	0.000061	0.606011	0.205322	-0.004840
 966	4.8250e-01	1.4342	2.815103	0.000152	1.515027	0.513305	-0.012099
 967	4.8300e-01	1.3812	2.609415	0.000515	5.151092	1.745237	-0.041138
 968	4.8350e-01	1.3492	2.605382	0.000010	0.101002	0.034220	-0.000807
 969	4.8400e-01	1.3091	2.375495	0.000576	5.757103	1.950559	-0.045977
 970	4.8450e-01	1.2673	2.399694	-0.000061	-0.606011	-0.205322	0.004840
 971	4.8500e-01	1.2353	2.282734	0.000293	2.929052	0.992390	-0.023392
 972	4.8550e-01	1.1871	2.101244	0.000455	4.545081	1.539915	-0.036298
 973	4.8600e-01	1.1406	2.024615	0.000192	1.919034	0.650186	-0.015326
 974	4.8650e-01	1.1117	1.980251	0.000111	1.111020	0.376424	-0.008873
 975	4.8700e-01	1.0700	1.774563	0.000515	5.151092	1.745237	-0.041138
 976	4.8750e-01	1.0299	1.669703	0.000263	2.626047	0.889729	-0.020972
 977	4.8800e-01	0.9834	1.572908	0.000242	2.424043	0.821288	-0.019359
 978	4.8850e-01	0.9481	1.407551	0.000414	4.141074	1.403034	-0.033071
 979	4.8900e-01	0.9064	1.443849	-0.000091	-0.909016	-0.307983	0.007260
 980	4.8950e-01	0.8711	1.359154	0.000212	2.121038	0.718627	-0.016939
 981	4.9000e-01	0.8294	1.064738	0.000737	7.373131	2.498085	-0.058883
 982	4.9050e-01	0.7957	0.959877	0.000263	2.626047	0.889729	-0.020972
 983	4.9100e-01	0.7524	0.859050	0.000253	2.525045	0.855508	-0.020165
 984	4.9150e-01	0.7107	0.822752	0.000091	0.909016	0.307983	-0.007260
 985	4.9200e-01	0.6690	0.742090	0.000202	2.020036	0.684407	-0.016132
 986	4.9250e-01	0.6321	0.637230	0.000263	2.626047	0.889729	-0.020972
 987	4.9300e-01	0.5839	0.508170	0.000323	3.232058	1.095051	-0.025812
 988	4.9350e-01	0.5519	0.310549	0.000495	4.949088	1.676796	-0.039524
 989	4.9400e-01	0.5085	0.282317	0.000071	0.707013	0.239542	-0.005646
 990	4.9450e-01	0.4749	0.185523	0.000242	2.424043	0.821288	-0.019359
 991	4.9500e-01	0.4251	-0.100827	0.000717	7.171128	2.429644	-0.057270
 992	4.9550e-01	0.3882	-0.149225	0.000121	1.212022	0.410644	-0.009679
 993	4.9600e-01	0.3497	-0.237953	0.000222	2.222040	0.752847	-0.017746
 994	4.9650e-01	0.3144	-0.367012	0.000323	3.232058	1.095051	-0.025812
 995	4.9700e-01	0.2743	-0.492038	0.000313	3.131056	1.060830	-0.025005
 996	4.9750e-01	0.2246	-0.568667	0.000192	1.919034	0.650186	-0.015326
 997	4.9800e-01	0.1797	-0.693693	0.000313	3.131056	1.060830	-0.025005
 998	4.9850e-01	0.1524	-0.770322	0.000192	1.919034	0.650186	-0.015326
 999	4.9900e-01	0.1091	-0.911480	0.000354	3.535063	1.197712	-0.028232
1000	4.9950e-01	0.0674	-0.879215	-0.000081	-0.808014	-0.273763	0.006453
1001	5.0000e-01	0.0273	-1.137334	0.000646	6.464115	2.190101	-0.051624
1002	5.0050e-01	-0.0048	-1.189764	0.000131	1.313023	0.444864	-0.010486
1003	5.0100e-01	-0.0433	-1.306724	0.000293	2.929052	0.992390	-0.023392
1004	5.0150e-01	-0.0834	-1.387386	0.000202	2.020036	0.684407	-0.016132
1005	5.0200e-01	-0.1171	-1.605173	0.000545	5.454097	1.847898	-0.043557
1006	5.0250e-01	-0.1620	-1.657604	0.000131	1.313023	0.444864	-0.010486
1007	5.0300e-01	-0.2069	-1.738265	0.000202	2.020036	0.684407	-0.016132
1008	5.0350e-01	-0.2326	-1.887490	0.000374	3.737067	1.266152	-0.029845
1009	5.0400e-01	-0.2775	-1.907656	0.000051	0.505009	0.171102	-0.004033
1010	5.0450e-01	-0.3289	-1.947987	0.000101	1.010018	0.342203	-0.008066
1011	5.0500e-01	-0.3658	-2.129476	0.000455	4.545081	1.539915	-0.036298
1012	5.0550e-01	-0.4091	-2.230304	0.000253	2.525045	0.855508	-0.020165
1013	5.0600e-01	-0.4476	-2.375495	0.000364	3.636065	1.231932	-0.029038
1014	5.0650e-01	-0.4845	-2.589249	0.000535	5.353095	1.813678	-0.042751
1015	5.0700e-01	-0.5310	-2.782838	0.000485	4.848086	1.642576	-0.038718
1016	5.0750e-01	-0.5615	-2.891732	0.000273	2.727049	0.923949	-0.021779
1017	5.0800e-01	-0.6096	-2.811070	-0.000202	-2.020036	-0.684407	0.016132
1018	5.0850e-01	-0.6385	-2.968361	0.000394	3.939070	1.334593	-0.031458
1019	5.0900e-01	-0.6834	-3.141784	0.000434	4.343077	1.471474	-0.034685
1020	5.0950e-01	-0.7219	-3.234545	0.000232	2.323041	0.787068	-0.018552
1021	5.1000e-01	-0.7556	-3.250677	0.000040	0.404007	0.136881	-0.003226
1022	5.1050e-01	-0.8085	-3.472498	0.000556	5.555099	1.882118	-0.044364
1023	5.1100e-01	-0.8438	-3.492663	0.000051	0.505009	0.171102	-0.004033
1024	5.1150e-01	-0.8920	-3.653987	0.000404	4.040072	1.368813	-0.032265
1025	5.1200e-01	-0.9240	-3.694318	0.000101	1.010018	0.342203	-0.008066
1026	5.1250e-01	-0.9561	-3.803212	0.000273	2.727049	0.923949	-0.021779
1027	5.1300e-01	-0.9930	-4.016966	0.000535	5.353095	1.813678	-0.042751
1028	5.1350e-01	-1.0492	-4.146025	0.000323	3.232058	1.095051	-0.025812
1029	5.1400e-01	-1.0893	-4.202489	0.000141	1.414025	0.479085	-0.011293
1030	5.1450e-01	-1.1230	-4.170224	-0.000081	-0.808014	-0.273763	0.006453
1031	5.1500e-01	-1.1615	-4.359780	0.000475	4.747085	1.608356	-0.037911
1032	5.1550e-01	-1.2016	-4.517070	0.000394	3.939070	1.334593	-0.031458
1033	5.1600e-01	-1.2449	-4.666295	0.000374	3.737067	1.266152	-0.029845
1034	5.1650e-01	-1.2818	-4.847785	0.000455	4.545081	1.539915	-0.036298
1035	5.1700e-01	-1.3283	-4.795354	-0.000131	-1.313023	-0.444864	0.010486
1036	5.1750e-01	-1.3540	-4.839718	0.000111	1.111020	0.376424	-0.008873
1037	5.1800e-01	-1.4005	-5.053473	0.000535	5.353095	1.813678	-0.042751
1038	5.1850e-01	-1.4486	-5.154300	0.000253	2.525045	0.855508	-0.020165
1039	5.1900e-01	-1.4855	-5.162366	0.000020	0.202004	0.068441	-0.001613
1040	5.1950e-01	-1.5176	-5.372087	0.000525	5.252094	1.779457	-0.041944
1041	5.2000e-01	-1.5593	-5.501146	0.000323	3.232058	1.095051	-0.025812
1042	5.2050e-01	-1.6042	-5.565676	0.000162	1.616029	0.547525	-0.012906
1043	5.2100e-01	-1.6411	-5.638272	0.000182	1.818032	0.615966	-0.014519
1044	5.2150e-01	-1.6893	-5.727000	0.000222	2.222040	0.752847	-0.017746
1045	5.2200e-01	-1.7246	-5.928655	0.000505	5.050090	1.711017	-0.040331
1046	5.2250e-01	-1.7566	-6.049648	0.000303	3.030054	1.026610	-0.024199
1047	5.2300e-01	-1.8064	-6.279535	0.000576	5.757103	1.950559	-0.045977
1048	5.2350e-01	-1.8465	-6.327932	0.000121	1.212022	0.410644	-0.009679
1049	5.2400e-01	-1.8882	-6.461024	0.000333	3.333059	1.129271	-0.026618
1050	5.2450e-01	-1.9251	-6.477156	0.000040	0.404007	0.136881	-0.003226
1051	5.2500e-01	-1.9684	-6.586050	0.000273	2.727049	0.923949	-0.021779
1052	5.2550e-01	-1.9925	-6.638480	0.000131	1.313023	0.444864	-0.010486
1053	5.2600e-01	-2.0406	-6.666712	0.000071	0.707013	0.239542	-0.005646
1054	5.2650e-01	-2.0791	-6.864334	0.000495	4.949088	1.676796	-0.039524
1055	5.2700e-01	-2.1256	-6.985327	0.000303	3.030054	1.026610	-0.024199
1056	5.2750e-01	-2.1641	-7.094220	0.000273	2.727049	0.923949	-0.021779
1057	5.2800e-01	-2.2026	-7.090187	-0.000010	-0.101002	-0.034220	0.000807
1058	5.2850e-01	-2.2507	-7.340239	0.000626	6.262111	2.121661	-0.050010
1059	5.2900e-01	-2.2844	-7.457199	0.000293	2.929052	0.992390	-0.023392
1060	5.2950e-01	-2.3277	-7.606424	0.000374	3.737067	1.266152	-0.029845
1061	5.3000e-01	-2.3566	-7.662887	0.000141	1.414025	0.479085	-0.011293
1062	5.3050e-01	-2.4015	-7.808079	0.000364	3.636065	1.231932	-0.029038
1063	5.3100e-01	-2.4432	-7.864542	0.000141	1.414025	0.479085	-0.011293
1064	5.3150e-01	-2.4882	-7.949237	0.000212	2.121038	0.718627	-0.016939
1065	5.3200e-01	-2.5219	-8.090396	0.000354	3.535063	1.197712	-0.028232
1066	5.3250e-01	-2.5652	-8.179124	0.000222	2.222040	0.752847	-0.017746
1067	5.3300e-01	-2.6005	-8.207356	0.000071	0.707013	0.239542	-0.005646
1068	5.3350e-01	-2.6470	-8.352547	0.000364	3.636065	1.231932	-0.029038
1069	5.3400e-01	-2.6871	-8.372713	0.000051	0.505009	0.171102	-0.004033
1070	5.3450e-01	-2.7240	-8.622765	0.000626	6.262111	2.121661	-0.050010
1071	5.3500e-01	-2.7641	-8.739725	0.000293	2.929052	0.992390	-0.023392
1072	5.3550e-01	-2.8058	-8.767956	0.000071	0.707013	0.239542	-0.005646
1073	5.3600e-01	-2.8443	-8.949446	0.000455	4.545081	1.539915	-0.036298
1074	5.3650e-01	-2.8876	-9.001876	0.000131	1.313023	0.444864	-0.010486
1075	5.3700e-01	-2.9245	-9.219663	0.000545	5.454097	1.847898	-0.043557
1076	5.3750e-01	-2.9694	-9.348723	0.000323	3.232058	1.095051	-0.025812
1077	5.3800e-01	-3.0079	-9.449550	0.000253	2.525045	0.855508	-0.020165
1078	5.3850e-01	-3.0480	-9.473749	0.000061	0.606011	0.205322	-0.004840
1079	5.3900e-01	-3.0801	-9.695569	0.000556	5.555099	1.882118	-0.044364
1080	5.3950e-01	-3.1283	-9.695569	-0.000000	-0.000000	-0.000000	0.000000
1081	5.4000e-01	-3.1652	-9.804463	0.000273	2.727049	0.923949	-0.021779
1082	5.4050e-01	-3.2037	-9.941588	0.000343	3.434061	1.163491	-0.027425
1083	5.4100e-01	-3.2438	-10.054515	0.000283	2.828050	0.958169	-0.022585
1084	5.4150e-01	-3.2791	-10.272302	0.000545	5.454097	1.847898	-0.043557
1085	5.4200e-01	-3.3240	-10.316666	0.000111	1.111020	0.376424	-0.008873
1086	5.4250e-01	-3.3673	-10.401361	0.000212	2.121038	0.718627	-0.016939
1087	5.4300e-01	-3.4122	-10.566718	0.000414	4.141074	1.403034	-0.033071
1088	5.4350e-01	-3.4571	-10.498156	-0.000172	-1.717031	-0.581746	0.013713
1089	5.4400e-01	-3.4780	-10.703844	0.000515	5.151092	1.745237	-0.041138
1090	5.4450e-01	-3.5197	-10.836936	0.000333	3.333059	1.129271	-0.026618
1091	5.4500e-01	-3.5662	-10.840969	0.000010	0.101002	0.034220	-0.000807
1092	5.4550e-01	-3.5999	-11.006326	0.000414	4.141074	1.403034	-0.033071
1093	5.4600e-01	-3.6512	-11.038591	0.000081	0.808014	0.273763	-0.006453
1094	5.4650e-01	-3.6769	-11.345106	0.000768	7.676137	2.600746	-0.061303
1095	5.4700e-01	-3.7154	-11.345106	-0.000000	-0.000000	-0.000000	0.000000
1096	5.4750e-01	-3.7748	-11.357206	0.000030	0.303005	0.102661	-0.002420
1097	5.4800e-01	-3.8133	-11.546761	0.000475	4.747085	1.608356	-0.037911
1098	5.4850e-01	-3.8486	-11.752449	0.000515	5.151092	1.745237	-0.041138
1099	5.4900e-01	-3.8887	-11.772615	0.000051	0.505009	0.171102	-0.004033
1100	5.4950e-01	-3.9336	-11.897641	0.000313	3.131056	1.060830	-0.025005
1101	5.5000e-01	-3.9609	-11.990402	0.000232	2.323041	0.787068	-0.018552
1102	5.5050e-01	-4.0138	-12.127527	0.000343	3.434061	1.163491	-0.027425
1103	5.5100e-01	-4.0475	-12.183991	0.000141	1.414025	0.479085	-0.011293
1104	5.5150e-01	-4.0828	-12.333216	0.000374	3.737067	1.266152	-0.029845
1105	5.5200e-01	-4.1373	-12.385646	0.000131	1.313023	0.444864	-0.010486
1106	5.5250e-01	-4.1614	-12.591334	0.000515	5.151092	1.745237	-0.041138
1107	5.5300e-01	-4.2175	-12.631665	0.000101	1.010018	0.342203	-0.008066
1108	5.5350e-01	-4.2416	-12.780889	0.000374	3.737067	1.266152	-0.029845
1109	5.5400e-01	-4.2769	-12.837353	0.000141	1.414025	0.479085	-0.011293
1110	5.5450e-01	-4.3218	-12.922048	0.000212	2.121038	0.718627	-0.016939
1111	5.5500e-01	-4.3635	-12.885750	-0.000091	-0.909016	-0.307983	0.007260
1112	5.5550e-01	-4.4036	-13.139835	0.000636	6.363113	2.155881	-0.050817
1113	5.5600e-01	-4.4453	-13.264861	0.000313	3.131056	1.060830	-0.025005
1114	5.5650e-01	-4.4838	-13.321325	0.000141	1.414025	0.479085	-0.011293
1115	5.5700e-01	-4.5287	-13.414086	0.000232	2.323041	0.787068	-0.018552
1116	5.5750e-01	-4.5640	-13.595575	0.000455	4.545081	1.539915	-0.036298
1117	5.5800e-01	-4.5993	-13.708502	0.000283	2.828050	0.958169	-0.022585
1118	5.5850e-01	-4.6443	-13.773032	0.000162	1.616029	0.547525	-0.012906
1119	5.5900e-01	-4.6860	-13.881925	0.000273	2.727049	0.923949	-0.021779
1120	5.5950e-01	-4.7261	-14.079547	0.000495	4.949088	1.676796	-0.039524
1121	5.6000e-01	-4.7630	-14.039216	-0.000101	-1.010018	-0.342203	0.008066
1122	5.6050e-01	-4.8047	-14.349765	0.000778	7.777138	2.634966	-0.062110
1123	5.6100e-01	-4.8416	-14.357831	0.000020	0.202004	0.068441	-0.001613
1124	5.6150e-01	-4.8849	-14.446559	0.000222	2.222040	0.752847	-0.017746
1125	5.6200e-01	-4.9218	-14.511089	0.000162	1.616029	0.547525	-0.012906
1126	5.6250e-01	-4.9651	-14.611916	0.000253	2.525045	0.855508	-0.020165
1127	5.6300e-01	-4.9972	-14.801472	0.000475	4.747085	1.608356	-0.037911
1128	5.6350e-01	-5.0485	-14.898266	0.000242	2.424043	0.821288	-0.019359
1129	5.6400e-01	-5.0822	-14.970862	0.000182	1.818032	0.615966	-0.014519
1130	5.6450e-01	-5.1207	-15.180583	0.000525	5.252094	1.779457	-0.041944
1131	5.6500e-01	-5.1640	-15.140252	-0.000101	-1.010018	-0.342203	0.008066
1132	5.6550e-01	-5.2057	-15.200749	0.000152	1.515027	0.513305	-0.012099
1133	5.6600e-01	-5.2507	-15.354006	0.000384	3.838068	1.300373	-0.030652
1134	5.6650e-01	-5.2779	-15.430635	0.000192	1.919034	0.650186	-0.015326
1135	5.6700e-01	-5.3261	-15.604058	0.000434	4.343077	1.471474	-0.034685
1136	5.6750e-01	-5.3613	-15.595992	-0.000020	-0.202004	-0.068441	0.001613
1137	5.6800e-01	-5.3982	-15.825879	0.000576	5.757103	1.950559	-0.045977
1138	5.6850e-01	-5.4496	-15.979137	0.000384	3.838068	1.300373	-0.030652
1139	5.6900e-01	-5.4833	-15.958971	-0.000051	-0.505009	-0.171102	0.004033
1140	5.6950e-01	-5.5266	-16.136428	0.000444	4.444079	1.505695	-0.035491
1141	5.7000e-01	-5.5651	-16.237255	0.000253	2.525045	0.855508	-0.020165
1142	5.7050e-01	-5.6004	-16.342116	0.000263	2.626047	0.889729	-0.020972
1143	5.7100e-01	-5.6437	-16.325983	-0.000040	-0.404007	-0.136881	0.003226
1144	5.7150e-01	-5.6854	-16.523605	0.000495	4.949088	1.676796	-0.039524
1145	5.7200e-01	-5.7191	-16.632499	0.000273	2.727049	0.923949	-0.021779
1146	5.7250e-01	-5.7624	-16.721227	0.000222	2.222040	0.752847	-0.017746
1147	5.7300e-01	-5.8089	-16.761558	0.000101	1.010018	0.342203	-0.008066
1148	5.7350e-01	-5.8442	-16.906749	0.000364	3.636065	1.231932	-0.029038
1149	5.7400e-01	-5.8859	-17.015643	0.000273	2.727049	0.923949	-0.021779
1150	5.7450e-01	-5.9228	-17.076139	0.000152	1.515027	0.513305	-0.012099
1151	5.7500e-01	-5.9677	-17.229397	0.000384	3.838068	1.300373	-0.030652
1152	5.7550e-01	-6.0127	-17.273761	0.000111	1.111020	0.376424	-0.008873
1153	5.7600e-01	-6.0431	-17.431052	0.000394	3.939070	1.334593	-0.031458
1154	5.7650e-01	-6.0849	-17.556078	0.000313	3.131056	1.060830	-0.025005
1155	5.7700e-01	-6.1250	-17.652873	0.000242	2.424043	0.821288	-0.019359
1156	5.7750e-01	-6.1667	-17.834362	0.000455	4.545081	1.539915	-0.036298
1157	5.7800e-01	-6.2084	-17.931156	0.000242	2.424043	0.821288	-0.019359
1158	5.7850e-01	-6.2437	-18.015851	0.000212	2.121038	0.718627	-0.016939
1159	5.7900e-01	-6.2854	-18.229606	0.000535	5.353095	1.813678	-0.042751
1160	5.7950e-01	-6.3207	-18.165076	-0.000162	-1.616029	-0.547525	0.012906
1161	5.8000e-01	-6.3672	-18.310268	0.000364	3.636065	1.231932	-0.029038
1162	5.8050e-01	-6.4025	-18.435294	0.000313	3.131056	1.060830	-0.025005
1163	5.8100e-01	-6.4410	-18.649048	0.000535	5.353095	1.813678	-0.042751
1164	5.8150e-01	-6.4827	-18.761975	0.000283	2.828050	0.958169	-0.022585
1165	5.8200e-01	-6.5212	-18.766008	0.000010	0.101002	0.034220	-0.000807
1166	5.8250e-01	-6.5597	-18.874901	0.000273	2.727049	0.923949	-0.021779
1167	5.8300e-01	-6.6046	-18.870868	-0.000010	-0.101002	-0.034220	0.000807
1168	5.8350e-01	-6.6495	-19.108821	0.000596	5.959106	2.019000	-0.047591
1169	5.8400e-01	-6.6816	-19.217715	0.000273	2.727049	0.923949	-0.021779
1170	5.8450e-01	-6.7249	-19.197549	-0.000051	-0.505009	-0.171102	0.004033
1171	5.8500e-01	-6.7554	-19.258046	0.000152	1.515027	0.513305	-0.012099
1172	5.8550e-01	-6.8003	-19.362906	0.000263	2.626047	0.889729	-0.020972
1173	5.8600e-01	-6.8437	-19.524230	0.000404	4.040072	1.368813	-0.032265
1174	5.8650e-01	-6.8806	-19.641190	0.000293	2.929052	0.992390	-0.023392
1175	5.8700e-01	-6.9223	-19.742018	0.000253	2.525045	0.855508	-0.020165
1176	5.8750e-01	-6.9543	-19.826713	0.000212	2.121038	0.718627	-0.016939
1177	5.8800e-01	-7.0057	-19.802514	-0.000061	-0.606011	-0.205322	0.004840
1178	5.8850e-01	-7.0474	-20.004169	0.000505	5.050090	1.711017	-0.040331
1179	5.8900e-01	-7.0795	-20.165493	0.000404	4.040072	1.368813	-0.032265
1180	5.8950e-01	-7.1244	-20.181625	0.000040	0.404007	0.136881	-0.003226
1181	5.9000e-01	-7.1661	-20.318751	0.000343	3.434061	1.163491	-0.027425
1182	5.9050e-01	-7.1998	-20.431678	0.000283	2.828050	0.958169	-0.022585
1183	5.9100e-01	-7.2399	-20.572836	0.000354	3.535063	1.197712	-0.028232
1184	5.9150e-01	-7.2880	-20.701895	0.000323	3.232058	1.095051	-0.025812
1185	5.9200e-01	-7.3265	-20.766425	0.000162	1.616029	0.547525	-0.012906
1186	5.9250e-01	-7.3682	-20.726094	-0.000101	-1.010018	-0.342203	0.008066
1187	5.9300e-01	-7.3971	-20.988245	0.000657	6.565117	2.224322	-0.052430
1188	5.9350e-01	-7.4404	-21.097139	0.000273	2.727049	0.923949	-0.021779
1189	5.9400e-01	-7.4805	-21.193933	0.000242	2.424043	0.821288	-0.019359
1190	5.9450e-01	-7.5142	-21.246363	0.000131	1.313023	0.444864	-0.010486
1191	5.9500e-01	-7.5720	-21.387522	0.000354	3.535063	1.197712	-0.028232
1192	5.9550e-01	-7.5960	-21.524647	0.000343	3.434061	1.163491	-0.027425
1193	5.9600e-01	-7.6426	-21.560945	0.000091	0.909016	0.307983	-0.007260
1194	5.9650e-01	-7.6746	-21.730335	0.000424	4.242076	1.437254	-0.033878
1195	5.9700e-01	-7.7228	-21.798898	0.000172	1.717031	0.581746	-0.013713
1196	5.9750e-01	-7.7725	-21.855361	0.000141	1.414025	0.479085	-0.011293
1197	5.9800e-01	-7.8110	-21.972321	0.000293	2.929052	0.992390	-0.023392
1198	5.9850e-01	-7.8495	-22.012652	0.000101	1.010018	0.342203	-0.008066
1199	5.9900e-01	-7.8880	-22.202208	0.000475	4.747085	1.608356	-0.037911
1200	5.9950e-01	-7.9249	-22.331267	0.000323	3.232058	1.095051	-0.025812
1201	6.0000e-01	-7.9634	-22.460326	0.000323	3.232058	1.095051	-0.025812
1202	6.0050e-01	-8.0067	-22.581319	0.000303	3.030054	1.026610	-0.024199
1203	6.0100e-01	-8.0468	-22.553087	-0.000071	-0.707013	-0.239542	0.005646
1204	6.0150e-01	-8.0821	-22.706345	0.000384	3.838068	1.300373	-0.030652
1205	6.0200e-01	-8.1222	-22.899934	0.000485	4.848086	1.642576	-0.038718
1206	6.0250e-01	-8.1671	-22.871702	-0.000071	-0.707013	-0.239542	0.005646
1207	6.0300e-01	-8.2008	-23.045125	0.000434	4.343077	1.471474	-0.034685
1208	6.0350e-01	-8.2329	-23.254847	0.000525	5.252094	1.779457	-0.041944
1209	6.0400e-01	-8.2939	-23.299211	0.000111	1.111020	0.376424	-0.008873
1210	6.0450e-01	-8.3179	-23.347608	0.000121	1.212022	0.410644	-0.009679
1211	6.0500e-01	-8.3725	-23.412137	0.000162	1.616029	0.547525	-0.012906
1212	6.0550e-01	-8.3998	-23.601693	0.000475	4.747085	1.608356	-0.037911
1213	6.0600e-01	-8.4367	-23.609759	0.000020	0.202004	0.068441	-0.001613
1214	6.0650e-01	-8.4896	-23.758984	0.000374	3.737067	1.266152	-0.029845
1215	6.0700e-01	-8.5185	-23.908209	0.000374	3.737067	1.266152	-0.029845
1216	6.0750e-01	-8.5698	-23.964672	0.000141	1.414025	0.479085	-0.011293
1217	6.0800e-01	-8.5987	-24.065499	0.000253	2.525045	0.855508	-0.020165
1218	6.0850e-01	-8.6308	-24.198592	0.000333	3.333059	1.129271	-0.026618
1219	6.0900e-01	-8.6821	-24.295386	0.000242	2.424043	0.821288	-0.019359
1220	6.0950e-01	-8.7238	-24.355882	0.000152	1.515027	0.513305	-0.012099
1221	6.1000e-01	-8.7687	-24.452677	0.000242	2.424043	0.821288	-0.019359
1222	6.1050e-01	-8.8040	-24.614001	0.000404	4.040072	1.368813	-0.032265
1223	6.1100e-01	-8.8441	-24.682563	0.000172	1.717031	0.581746	-0.013713
1224	6.1150e-01	-8.8826	-24.799523	0.000293	2.929052	0.992390	-0.023392
1225	6.1200e-01	-8.9227	-24.932616	0.000333	3.333059	1.129271	-0.026618
1226	6.1250e-01	-8.9677	-24.932616	-0.000000	-0.000000	-0.000000	0.000000
1227	6.1300e-01	-9.0126	-24.989079	0.000141	1.414025	0.479085	-0.011293
1228	6.1350e-01	-9.0447	-25.041509	0.000131	1.313023	0.444864	-0.010486
1229	6.1400e-01	-9.0800	-25.315760	0.000687	6.868122	2.326983	-0.054850
1230	6.1450e-01	-9.1281	-25.396422	0.000202	2.020036	0.684407	-0.016132
1231	6.1500e-01	-9.1666	-25.388356	-0.000020	-0.202004	-0.068441	0.001613
1232	6.1550e-01	-9.2083	-25.634375	0.000616	6.161110	2.087440	-0.049204
1233	6.1600e-01	-9.2516	-25.694871	0.000152	1.515027	0.513305	-0.012099
1234	6.1650e-01	-9.2837	-25.723103	0.000071	0.707013	0.239542	-0.005646
1235	6.1700e-01	-9.3254	-25.735202	0.000030	0.303005	0.102661	-0.002420
1236	6.1750e-01	-9.3559	-25.997354	0.000657	6.565117	2.224322	-0.052430
1237	6.1800e-01	-9.4008	-26.086082	0.000222	2.222040	0.752847	-0.017746
1238	6.1850e-01	-9.4473	-26.207075	0.000303	3.030054	1.026610	-0.024199
1239	6.1900e-01	-9.4794	-26.275637	0.000172	1.717031	0.581746	-0.013713
1240	6.1950e-01	-9.5275	-26.332101	0.000141	1.414025	0.479085	-0.011293
1241	6.2000e-01	-9.5692	-26.457127	0.000313	3.131056	1.060830	-0.025005
1242	6.2050e-01	-9.5997	-26.578120	0.000303	3.030054	1.026610	-0.024199
1243	6.2100e-01	-9.6463	-26.795907	0.000545	5.454097	1.847898	-0.043557
1244	6.2150e-01	-9.6799	-26.787841	-0.000020	-0.202004	-0.068441	0.001613
1245	6.2200e-01	-9.7297	-26.916900	0.000323	3.232058	1.095051	-0.025812
1246	6.2250e-01	-9.7634	-26.993529	0.000192	1.919034	0.650186	-0.015326
1247	6.2300e-01	-9.7987	-27.078224	0.000212	2.121038	0.718627	-0.016939
1248	6.2350e-01	-9.8420	-27.118555	0.000101	1.010018	0.342203	-0.008066
1249	6.2400e-01	-9.8805	-27.199217	0.000202	2.020036	0.684407	-0.016132
1250	6.2450e-01	-9.9142	-27.437170	0.000596	5.959106	2.019000	-0.047591
1251	6.2500e-01	-9.9655	-27.477501	0.000101	1.010018	0.342203	-0.008066
1252	6.2550e-01	-10.0024	-27.445236	-0.000081	-0.808014	-0.273763	0.006453
1253	6.2600e-01	-10.0505	-27.703354	0.000646	6.464115	2.190101	-0.051624
1254	6.2650e-01	-10.0874	-27.775950	0.000182	1.818032	0.615966	-0.014519
1255	6.2700e-01	-10.1307	-27.816281	0.000101	1.010018	0.342203	-0.008066
1256	6.2750e-01	-10.1596	-28.017936	0.000505	5.050090	1.711017	-0.040331
1257	6.2800e-01	-10.2109	-28.167161	0.000374	3.737067	1.266152	-0.029845
1258	6.2850e-01	-10.2382	-28.203459	0.000091	0.909016	0.307983	-0.007260
1259	6.2900e-01	-10.2815	-28.356716	0.000384	3.838068	1.300373	-0.030652
1260	6.2950e-01	-10.3264	-28.376882	0.000051	0.505009	0.171102	-0.004033
1261	6.3000e-01	-10.3601	-28.473676	0.000242	2.424043	0.821288	-0.019359
1262	6.3050e-01	-10.3922	-28.546272	0.000182	1.818032	0.615966	-0.014519
1263	6.3100e-01	-10.4387	-28.647099	0.000253	2.525045	0.855508	-0.020165
1264	6.3150e-01	-10.4885	-28.711629	0.000162	1.616029	0.547525	-0.012906
1265	6.3200e-01	-10.5125	-28.909251	0.000495	4.949088	1.676796	-0.039524
1266	6.3250e-01	-10.5559	-28.929416	0.000051	0.505009	0.171102	-0.004033
1267	6.3300e-01	-10.5976	-29.030244	0.000253	2.525045	0.855508	-0.020165
1268	6.3350e-01	-10.6377	-29.175435	0.000364	3.636065	1.231932	-0.029038
1269	6.3400e-01	-10.6826	-29.316594	0.000354	3.535063	1.197712	-0.028232
1270	6.3450e-01	-10.7195	-29.316594	-0.000000	-0.000000	-0.000000	0.000000
1271	6.3500e-01	-10.7548	-29.405322	0.000222	2.222040	0.752847	-0.017746
1272	6.3550e-01	-10.8093	-29.514216	0.000273	2.727049	0.923949	-0.021779
1273	6.3600e-01	-10.8542	-29.679573	0.000414	4.141074	1.403034	-0.033071
1274	6.3650e-01	-10.8831	-29.627142	-0.000131	-1.313023	-0.444864	0.010486
1275	6.3700e-01	-10.9200	-29.828797	0.000505	5.050090	1.711017	-0.040331
1276	6.3750e-01	-10.9697	-29.925592	0.000242	2.424043	0.821288	-0.019359
1277	6.3800e-01	-11.0050	-29.965923	0.000101	1.010018	0.342203	-0.008066
1278	6.3850e-01	-11.0387	-30.066750	0.000253	2.525045	0.855508	-0.020165
1279	6.3900e-01	-11.0917	-30.163544	0.000242	2.424043	0.821288	-0.019359
1280	6.3950e-01	-11.1254	-30.336968	0.000434	4.343077	1.471474	-0.034685
1281	6.4000e-01	-11.1639	-30.377299	0.000101	1.010018	0.342203	-0.008066
1282	6.4050e-01	-11.2088	-30.530556	0.000384	3.838068	1.300373	-0.030652
1283	6.4100e-01	-11.2360	-30.691880	0.000404	4.040072	1.368813	-0.032265
1284	6.4150e-01	-11.2890	-30.841105	0.000374	3.737067	1.266152	-0.029845
1285	6.4200e-01	-11.3307	-30.784642	-0.000141	-1.414025	-0.479085	0.011293
1286	6.4250e-01	-11.3628	-30.816906	0.000081	0.808014	0.273763	-0.006453
1287	6.4300e-01	-11.4109	-31.050826	0.000586	5.858104	1.984779	-0.046784
1288	6.4350e-01	-11.4462	-31.151654	0.000253	2.525045	0.855508	-0.020165
1289	6.4400e-01	-11.4879	-31.135521	-0.000040	-0.404007	-0.136881	0.003226
1290	6.4450e-01	-11.5264	-31.337176	0.000505	5.050090	1.711017	-0.040331
1291	6.4500e-01	-11.5649	-31.482368	0.000364	3.636065	1.231932	-0.029038
1292	6.4550e-01	-11.6114	-31.542864	0.000152	1.515027	0.513305	-0.012099
1293	6.4600e-01	-11.6419	-31.627559	0.000212	2.121038	0.718627	-0.016939
1294	6.4650e-01	-11.6868	-31.704188	0.000192	1.919034	0.650186	-0.015326
1295	6.4700e-01	-11.7237	-31.817115	0.000283	2.828050	0.958169	-0.022585
1296	6.4750e-01	-11.7606	-31.829214	0.000030	0.303005	0.102661	-0.002420
1297	6.4800e-01	-11.8039	-31.958273	0.000323	3.232058	1.095051	-0.025812
1298	6.4850e-01	-11.8489	-32.143796	0.000465	4.646083	1.574135	-0.037105
1299	6.4900e-01	-11.8858	-32.180094	0.000091	0.909016	0.307983	-0.007260
1300	6.4950e-01	-11.9211	-32.260756	0.000202	2.020036	0.684407	-0.016132
1301	6.5000e-01	-11.9676	-32.381749	0.000303	3.030054	1.026610	-0.024199
1302	6.5050e-01	-12.0093	-32.409980	0.000071	0.707013	0.239542	-0.005646
1303	6.5100e-01	-12.0478	-32.482576	0.000182	1.818032	0.615966	-0.014519
1304	6.5150e-01	-12.0783	-32.768926	0.000717	7.171128	2.429644	-0.057270
1305	6.5200e-01	-12.1232	-32.607602	-0.000404	-4.040072	-1.368813	0.032265
1306	6.5250e-01	-12.1665	-32.825390	0.000545	5.454097	1.847898	-0.043557
1307	6.5300e-01	-12.2018	-32.962515	0.000343	3.434061	1.163491	-0.027425
1308	6.5350e-01	-12.2467	-32.978647	0.000040	0.404007	0.136881	-0.003226
1309	6.5400e-01	-12.2788	-33.099640	0.000303	3.030054	1.026610	-0.024199
1310	6.5450e-01	-12.3189	-33.260964	0.000404	4.040072	1.368813	-0.032265
1311	6.5500e-01	-12.3702	-33.345659	0.000212	2.121038	0.718627	-0.016939
1312	6.5550e-01	-12.4023	-33.398090	0.000131	1.313023	0.444864	-0.010486
1313	6.5600e-01	-12.4440	-33.406156	0.000020	0.202004	0.068441	-0.001613
1314	6.5650e-01	-12.4825	-33.640075	0.000586	5.858104	1.984779	-0.046784
1315	6.5700e-01	-12.5210	-33.696539	0.000141	1.414025	0.479085	-0.011293
1316	6.5750e-01	-12.5595	-33.869962	0.000434	4.343077	1.471474	-0.034685
1317	6.5800e-01	-12.6109	-33.918359	0.000121	1.212022	0.410644	-0.009679
1318	6.5850e-01	-12.6446	-34.039352	0.000303	3.030054	1.026610	-0.024199
1319	6.5900e-01	-12.6831	-34.120014	0.000202	2.020036	0.684407	-0.016132
1320	6.5950e-01	-12.7200	-34.341835	0.000556	5.555099	1.882118	-0.044364
1321	6.6000e-01	-12.7681	-34.289404	-0.000131	-1.313023	-0.444864	0.010486
1322	6.6050e-01	-12.8098	-34.337801	0.000121	1.212022	0.410644	-0.009679
1323	6.6100e-01	-12.8467	-34.317636	-0.000051	-0.505009	-0.171102	0.004033
1324	6.6150e-01	-12.8916	-34.603986	0.000717	7.171128	2.429644	-0.057270
1325	6.6200e-01	-12.9253	-34.632218	0.000071	0.707013	0.239542	-0.005646
1326	6.6250e-01	-12.9638	-34.801608	0.000424	4.242076	1.437254	-0.033878
1327	6.6300e-01	-13.0055	-34.854038	0.000131	1.313023	0.444864	-0.010486
1328	6.6350e-01	-13.0424	-34.878237	0.000061	0.606011	0.205322	-0.004840
1329	6.6400e-01	-13.0793	-35.071825	0.000485	4.848086	1.642576	-0.038718
1330	6.6450e-01	-13.1210	-35.160554	0.000222	2.222040	0.752847	-0.017746
1331	6.6500e-01	-13.1579	-35.329944	0.000424	4.242076	1.437254	-0.033878
1332	6.6550e-01	-13.1980	-35.358175	0.000071	0.707013	0.239542	-0.005646
1333	6.6600e-01	-13.2429	-35.406573	0.000121	1.212022	0.410644	-0.009679
1334	6.6650e-01	-13.2879	-35.592095	0.000465	4.646083	1.574135	-0.037105
1335	6.6700e-01	-13.3264	-35.575963	-0.000040	-0.404007	-0.136881	0.003226
1336	6.6750e-01	-13.3552	-35.749386	0.000434	4.343077	1.471474	-0.034685
1337	6.6800e-01	-13.4098	-35.785684	0.000091	0.909016	0.307983	-0.007260
1338	6.6850e-01	-13.4451	-35.785684	-0.000000	-0.000000	-0.000000	0.000000
1339	6.6900e-01	-13.4820	-36.023637	0.000596	5.959106	2.019000	-0.047591
1340	6.6950e-01	-13.5269	-36.068001	0.000111	1.111020	0.376424	-0.008873
1341	6.7000e-01	-13.5654	-36.176894	0.000273	2.727049	0.923949	-0.021779
1342	6.7050e-01	-13.6007	-36.309987	0.000333	3.333059	1.129271	-0.026618
1343	6.7100e-01	-13.6440	-36.414847	0.000263	2.626047	0.889729	-0.020972
1344	6.7150e-01	-13.6761	-36.467278	0.000131	1.313023	0.444864	-0.010486
1345	6.7200e-01	-13.7210	-36.660866	0.000485	4.848086	1.642576	-0.038718
1346	6.7250e-01	-13.7723	-36.729429	0.000172	1.717031	0.581746	-0.013713
1347	6.7300e-01	-13.7964	-36.773793	0.000111	1.111020	0.376424	-0.008873
1348	6.7350e-01	-13.8477	-36.894786	0.000303	3.030054	1.026610	-0.024199
1349	6.7400e-01	-13.8798	-36.923018	0.000071	0.707013	0.239542	-0.005646
1350	6.7450e-01	-13.9135	-36.906885	-0.000040	-0.404007	-0.136881	0.003226
1351	6.7500e-01	-13.9600	-37.048044	0.000354	3.535063	1.197712	-0.028232
1352	6.7550e-01	-13.9985	-37.241632	0.000485	4.848086	1.642576	-0.038718
1353	6.7600e-01	-14.0451	-37.306162	0.000162	1.616029	0.547525	-0.012906
1354	6.7650e-01	-14.0804	-37.370692	0.000162	1.616029	0.547525	-0.012906
1355	6.7700e-01	-14.1269	-37.443287	0.000182	1.818032	0.615966	-0.014519
1356	6.7750e-01	-14.1590	-37.568313	0.000313	3.131056	1.060830	-0.025005
1357	6.7800e-01	-14.2103	-37.693340	0.000313	3.131056	1.060830	-0.025005
1358	6.7850e-01	-14.2376	-37.786101	0.000232	2.323041	0.787068	-0.018552
1359	6.7900e-01	-14.2873	-37.911127	0.000313	3.131056	1.060830	-0.025005
1360	6.7950e-01	-14.3178	-37.886928	-0.000061	-0.606011	-0.205322	0.004840
1361	6.8000e-01	-14.3659	-38.080517	0.000485	4.848086	1.642576	-0.038718
1362	6.8050e-01	-14.4076	-38.181344	0.000253	2.525045	0.855508	-0.020165
1363	6.8100e-01	-14.4461	-38.249907	0.000172	1.717031	0.581746	-0.013713
1364	6.8150e-01	-14.4798	-38.354768	0.000263	2.626047	0.889729	-0.020972
1365	6.8200e-01	-14.5215	-38.399132	0.000111	1.111020	0.376424	-0.008873
1366	6.8250e-01	-14.5680	-38.491893	0.000232	2.323041	0.787068	-0.018552
1367	6.8300e-01	-14.5969	-38.532224	0.000101	1.010018	0.342203	-0.008066
1368	6.8350e-01	-14.6450	-38.637085	0.000263	2.626047	0.889729	-0.020972
1369	6.8400e-01	-14.6916	-38.786309	0.000374	3.737067	1.266152	-0.029845
1370	6.8450e-01	-14.7317	-38.923435	0.000343	3.434061	1.163491	-0.027425
1371	6.8500e-01	-14.7541	-38.963766	0.000101	1.010018	0.342203	-0.008066
1372	6.8550e-01	-14.8087	-39.028295	0.000162	1.616029	0.547525	-0.012906
1373	6.8600e-01	-14.8343	-39.137189	0.000273	2.727049	0.923949	-0.021779
1374	6.8650e-01	-14.8728	-39.375142	0.000596	5.959106	2.019000	-0.047591
1375	6.8700e-01	-14.9210	-39.439671	0.000162	1.616029	0.547525	-0.012906
1376	6.8750e-01	-14.9675	-39.560664	0.000303	3.030054	1.026610	-0.024199
1377	6.8800e-01	-15.0044	-39.548565	-0.000030	-0.303005	-0.102661	0.002420
1378	6.8850e-01	-15.0461	-39.717955	0.000424	4.242076	1.437254	-0.033878
1379	6.8900e-01	-15.0782	-39.774418	0.000141	1.414025	0.479085	-0.011293
1380	6.8950e-01	-15.1247	-39.883312	0.000273	2.727049	0.923949	-0.021779
1381	6.9000e-01	-15.1584	-39.947842	0.000162	1.616029	0.547525	-0.012906
1382	6.9050e-01	-15.2033	-39.943809	-0.000010	-0.101002	-0.034220	0.000807
1383	6.9100e-01	-15.2450	-40.060768	0.000293	2.929052	0.992390	-0.023392
1384	6.9150e-01	-15.2803	-40.161596	0.000253	2.525045	0.855508	-0.020165
1385	6.9200e-01	-15.3236	-40.254357	0.000232	2.323041	0.787068	-0.018552
1386	6.9250e-01	-15.3589	-40.326953	0.000182	1.818032	0.615966	-0.014519
1387	6.9300e-01	-15.3974	-40.439880	0.000283	2.828050	0.958169	-0.022585
1388	6.9350e-01	-15.4375	-40.552806	0.000283	2.828050	0.958169	-0.022585
1389	6.9400e-01	-15.4808	-40.581038	0.000071	0.707013	0.239542	-0.005646
1390	6.9450e-01	-15.5226	-40.726230	0.000364	3.636065	1.231932	-0.029038
1391	6.9500e-01	-15.5643	-40.774627	0.000121	1.212022	0.410644	-0.009679
1392	6.9550e-01	-15.5964	-40.956116	0.000455	4.545081	1.539915	-0.036298
1393	6.9600e-01	-15.6445	-40.956116	-0.000000	-0.000000	-0.000000	0.000000
1394	6.9650e-01	-15.6878	-41.097275	0.000354	3.535063	1.197712	-0.028232
1395	6.9700e-01	-15.7215	-41.238433	0.000354	3.535063	1.197712	-0.028232
1396	6.9750e-01	-15.7648	-41.294897	0.000141	1.414025	0.479085	-0.011293
1397	6.9800e-01	-15.8017	-41.331194	0.000091	0.909016	0.307983	-0.007260
1398	6.9850e-01	-15.8386	-41.343294	0.000030	0.303005	0.102661	-0.002420
1399	6.9900e-01	-15.8883	-41.593346	0.000626	6.262111	2.121661	-0.050010
1400	6.9950e-01	-15.9268	-41.778868	0.000465	4.646083	1.574135	-0.037105
1401	7.0000e-01	-15.9717	-41.795001	0.000040	0.404007	0.136881	-0.003226
1402	7.0050e-01	-16.0135	-41.754670	-0.000101	-1.010018	-0.342203	0.008066
1403	7.0100e-01	-16.0455	-41.823233	0.000172	1.717031	0.581746	-0.013713
1404	7.0150e-01	-16.0856	-41.996656	0.000434	4.343077	1.471474	-0.034685
1405	7.0200e-01	-16.1241	-42.186211	0.000475	4.747085	1.608356	-0.037911
1406	7.0250e-01	-16.1626	-42.303171	0.000293	2.929052	0.992390	-0.023392
1407	7.0300e-01	-16.1995	-42.299138	-0.000010	-0.101002	-0.034220	0.000807
1408	7.0350e-01	-16.2445	-42.387866	0.000222	2.222040	0.752847	-0.017746
1409	7.0400e-01	-16.2894	-42.533058	0.000364	3.636065	1.231932	-0.029038
1410	7.0450e-01	-16.3183	-42.609687	0.000192	1.919034	0.650186	-0.015326
1411	7.0500e-01	-16.3535	-42.666150	0.000141	1.414025	0.479085	-0.011293
1412	7.0550e-01	-16.4033	-42.658084	-0.000020	-0.202004	-0.068441	0.001613
1413	7.0600e-01	-16.4434	-42.799242	0.000354	3.535063	1.197712	-0.028232
1414	7.0650e-01	-16.4867	-42.948467	0.000374	3.737067	1.266152	-0.029845
1415	7.0700e-01	-16.5220	-43.033162	0.000212	2.121038	0.718627	-0.016939
1416	7.0750e-01	-16.5637	-43.146089	0.000283	2.828050	0.958169	-0.022585
1417	7.0800e-01	-16.6006	-43.246916	0.000253	2.525045	0.855508	-0.020165
1418	7.0850e-01	-16.6423	-43.464704	0.000545	5.454097	1.847898	-0.043557
1419	7.0900e-01	-16.6808	-43.468737	0.000010	0.101002	0.034220	-0.000807
1420	7.0950e-01	-16.7225	-43.501002	0.000081	0.808014	0.273763	-0.006453
1421	7.1000e-01	-16.7642	-43.593763	0.000232	2.323041	0.787068	-0.018552
1422	7.1050e-01	-16.8011	-43.751054	0.000394	3.939070	1.334593	-0.031458
1423	7.1100e-01	-16.8412	-43.803484	0.000131	1.313023	0.444864	-0.010486
1424	7.1150e-01	-16.8829	-43.912378	0.000273	2.727049	0.923949	-0.021779
1425	7.1200e-01	-16.9295	-44.061602	0.000374	3.737067	1.266152	-0.029845
1426	7.1250e-01	-16.9632	-44.053536	-0.000020	-0.202004	-0.068441	0.001613
1427	7.1300e-01	-17.0033	-44.222926	0.000424	4.242076	1.437254	-0.033878
1428	7.1350e-01	-17.0466	-44.327787	0.000263	2.626047	0.889729	-0.020972
1429	7.1400e-01	-17.0883	-44.460879	0.000333	3.333059	1.129271	-0.026618
1430	7.1450e-01	-17.1348	-44.529442	0.000172	1.717031	0.581746	-0.013713
1431	7.1500e-01	-17.1637	-44.497177	-0.000081	-0.808014	-0.273763	0.006453
1432	7.1550e-01	-17.2102	-44.622203	0.000313	3.131056	1.060830	-0.025005
1433	7.1600e-01	-17.2439	-44.731097	0.000273	2.727049	0.923949	-0.021779
1434	7.1650e-01	-17.2776	-44.718997	-0.000030	-0.303005	-0.102661	0.002420
1435	7.1700e-01	-17.3241	-44.791593	0.000182	1.818032	0.615966	-0.014519
1436	7.1750e-01	-17.3722	-44.956950	0.000414	4.141074	1.403034	-0.033071
1437	7.1800e-01	-17.3979	-45.130373	0.000434	4.343077	1.471474	-0.034685
1438	7.1850e-01	-17.4396	-45.186837	0.000141	1.414025	0.479085	-0.011293
1439	7.1900e-01	-17.4797	-45.227168	0.000101	1.010018	0.342203	-0.008066
1440	7.1950e-01	-17.5230	-45.352194	0.000313	3.131056	1.060830	-0.025005
1441	7.2000e-01	-17.5631	-45.465121	0.000283	2.828050	0.958169	-0.022585
1442	7.2050e-01	-17.6097	-45.493352	0.000071	0.707013	0.239542	-0.005646
1443	7.2100e-01	-17.6450	-45.505452	0.000030	0.303005	0.102661	-0.002420
1444	7.2150e-01	-17.6835	-45.590147	0.000212	2.121038	0.718627	-0.016939
1445	7.2200e-01	-17.7284	-45.803901	0.000535	5.353095	1.813678	-0.042751
1446	7.2250e-01	-17.7605	-45.860364	0.000141	1.414025	0.479085	-0.011293
1447	7.2300e-01	-17.7990	-45.997490	0.000343	3.434061	1.163491	-0.027425
1448	7.2350e-01	-17.8503	-46.106383	0.000273	2.727049	0.923949	-0.021779
1449	7.2400e-01	-17.8824	-46.227376	0.000303	3.030054	1.026610	-0.024199
1450	7.2450e-01	-17.9241	-46.207211	-0.000051	-0.505009	-0.171102	0.004033
1451	7.2500e-01	-17.9626	-46.352402	0.000364	3.636065	1.231932	-0.029038
1452	7.2550e-01	-18.0027	-46.465329	0.000283	2.828050	0.958169	-0.022585
1453	7.2600e-01	-18.0540	-46.582289	0.000293	2.929052	0.992390	-0.023392
1454	7.2650e-01	-18.0909	-46.594388	0.000030	0.303005	0.102661	-0.002420
1455	7.2700e-01	-18.1182	-46.691183	0.000242	2.424043	0.821288	-0.019359
1456	7.2750e-01	-18.1631	-46.848473	0.000394	3.939070	1.334593	-0.031458
1457	7.2800e-01	-18.2096	-46.880738	0.000081	0.808014	0.273763	-0.006453
1458	7.2850e-01	-18.2337	-46.929135	0.000121	1.212022	0.410644	-0.009679
1459	7.2900e-01	-18.2963	-47.058194	0.000323	3.232058	1.095051	-0.025812
1460	7.2950e-01	-18.3219	-47.090459	0.000081	0.808014	0.273763	-0.006453
1461	7.3000e-01	-18.3653	-47.227585	0.000343	3.434061	1.163491	-0.027425
1462	7.3050e-01	-18.4022	-47.328412	0.000253	2.525045	0.855508	-0.020165
1463	7.3100e-01	-18.4487	-47.461504	0.000333	3.333059	1.129271	-0.026618
1464	7.3150e-01	-18.4840	-47.457471	-0.000010	-0.101002	-0.034220	0.000807
1465	7.3200e-01	-18.5241	-47.735755	0.000697	6.969124	2.361203	-0.055657
1466	7.3250e-01	-18.5626	-47.691391	-0.000111	-1.111020	-0.376424	0.008873
1467	7.3300e-01	-18.6075	-47.941443	0.000626	6.262111	2.121661	-0.050010
1468	7.3350e-01	-18.6428	-47.953542	0.000030	0.303005	0.102661	-0.002420
1469	7.3400e-01	-18.6861	-47.981774	0.000071	0.707013	0.239542	-0.005646
1470	7.3450e-01	-18.7214	-48.106800	0.000313	3.131056	1.060830	-0.025005
1471	7.3500e-01	-18.7647	-48.163264	0.000141	1.414025	0.479085	-0.011293
1472	7.3550e-01	-18.7984	-48.360885	0.000495	4.949088	1.676796	-0.039524
1473	7.3600e-01	-18.8385	-48.417349	0.000141	1.414025	0.479085	-0.011293
1474	7.3650e-01	-18.8866	-48.453647	0.000091	0.909016	0.307983	-0.007260
1475	7.3700e-01	-18.9203	-48.614971	0.000404	4.040072	1.368813	-0.032265
1476	7.3750e-01	-18.9620	-48.606904	-0.000020	-0.202004	-0.068441	0.001613
1477	7.3800e-01	-19.0086	-48.748063	0.000354	3.535063	1.197712	-0.028232
1478	7.3850e-01	-19.0535	-48.856956	0.000273	2.727049	0.923949	-0.021779
1479	7.3900e-01	-19.0791	-49.026347	0.000424	4.242076	1.437254	-0.033878
1480	7.3950e-01	-19.1273	-49.183637	0.000394	3.939070	1.334593	-0.031458
1481	7.4000e-01	-19.1690	-49.046512	-0.000343	-3.434061	-1.163491	0.027425
1482	7.4050e-01	-19.1962	-49.336895	0.000727	7.272129	2.463864	-0.058077
1483	7.4100e-01	-19.2492	-49.381259	0.000111	1.111020	0.376424	-0.008873
1484	7.4150e-01	-19.2797	-49.449822	0.000172	1.717031	0.581746	-0.013713
1485	7.4200e-01	-19.3278	-49.707940	0.000646	6.464115	2.190101	-0.051624
1486	7.4250e-01	-19.3711	-49.595014	-0.000283	-2.828050	-0.958169	0.022585
1487	7.4300e-01	-19.3984	-49.756337	0.000404	4.040072	1.368813	-0.032265
1488	7.4350e-01	-19.4449	-49.849099	0.000232	2.323041	0.787068	-0.018552
1489	7.4400e-01	-19.4834	-49.897496	0.000121	1.212022	0.410644	-0.009679
1490	7.4450e-01	-19.5219	-49.994290	0.000242	2.424043	0.821288	-0.019359
1491	7.4500e-01	-19.5556	-50.083018	0.000222	2.222040	0.752847	-0.017746
1492	7.4550e-01	-19.6085	-50.179813	0.000242	2.424043	0.821288	-0.019359
1493	7.4600e-01	-19.6438	-50.312905	0.000333	3.333059	1.129271	-0.026618
1494	7.4650e-01	-19.6807	-50.361302	0.000121	1.212022	0.410644	-0.009679
1495	7.4700e-01	-19.7305	-50.558924	0.000495	4.949088	1.676796	-0.039524
1496	7.4750e-01	-19.7609	-50.518593	-0.000101	-1.010018	-0.342203	0.008066
1497	7.4800e-01	-19.8026	-50.611354	0.000232	2.323041	0.787068	-0.018552
1498	7.4850e-01	-19.8444	-50.780745	0.000424	4.242076	1.437254	-0.033878
1499	7.4900e-01	-19.8893	-50.873506	0.000232	2.323041	0.787068	-0.018552
1500	7.4950e-01	-19.9278	-51.034830	0.000404	4.040072	1.368813	-0.032265
1501	7.5000e-01	-19.9695	-51.091293	0.000141	1.414025	0.479085	-0.011293
1502	7.5050e-01	-19.9727	-50.990466	-0.000253	-2.525045	-0.855508	0.020165
1503	7.5100e-01	-19.9390	-51.002565	-0.000030	-0.303005	-0.102661	-0.002420
1504	7.5150e-01	-19.9005	-51.034830	-0.000081	-0.808014	-0.273763	-0.006453
1505	7.5200e-01	-19.8684	-50.929969	0.000263	2.626047	0.889729	0.020972
1506	7.5250e-01	-19.8267	-50.700083	0.000576	5.757103	1.950559	0.045977
1507	7.5300e-01	-19.7802	-50.756546	-0.000141	-1.414025	-0.479085	-0.011293
1508	7.5350e-01	-19.7385	-50.651685	0.000263	2.626047	0.889729	0.020972
1509	7.5400e-01	-19.6984	-50.534725	0.000293	2.929052	0.992390	0.023392
1510	7.5450e-01	-19.6551	-50.595222	-0.000152	-1.515027	-0.513305	-0.012099
1511	7.5500e-01	-19.6214	-50.575056	0.000051	0.505009	0.171102	0.004033
1512	7.5550e-01	-19.5813	-50.413733	0.000404	4.040072	1.368813	0.032265
1513	7.5600e-01	-19.5556	-50.365335	0.000121	1.212022	0.410644	0.009679
1514	7.5650e-01	-19.5027	-50.224177	0.000354	3.535063	1.197712	0.028232
1515	7.5700e-01	-19.4658	-50.268541	-0.000111	-1.111020	-0.376424	-0.008873
1516	7.5750e-01	-19.4257	-50.147548	0.000303	3.030054	1.026610	0.024199
1517	7.5800e-01	-19.3839	-50.083018	0.000162	1.616029	0.547525	0.012906
1518	7.5850e-01	-19.3454	-49.881364	0.000505	5.050090	1.711017	0.040331
1519	7.5900e-01	-19.2989	-49.764404	0.000293	2.929052	0.992390	0.023392
1520	7.5950e-01	-19.2668	-49.877330	-0.000283	-2.828050	-0.958169	-0.022585
1521	7.6000e-01	-19.2219	-49.796668	0.000202	2.020036	0.684407	0.016132
1522	7.6050e-01	-19.1898	-49.683742	0.000283	2.828050	0.958169	0.022585
1523	7.6100e-01	-19.1465	-49.478054	0.000515	5.151092	1.745237	0.041138
1524	7.6150e-01	-19.0968	-49.494186	-0.000040	-0.404007	-0.136881	-0.003226
1525	7.6200e-01	-19.0695	-49.461921	0.000081	0.808014	0.273763	0.006453
1526	7.6250e-01	-19.0198	-49.348994	0.000283	2.828050	0.958169	0.022585
1527	7.6300e-01	-18.9845	-49.284465	0.000162	1.616029	0.547525	0.012906
1528	7.6350e-01	-18.9476	-49.244134	0.000101	1.010018	0.342203	0.008066
1529	7.6400e-01	-18.9107	-49.155406	0.000222	2.222040	0.752847	0.017746
1530	7.6450e-01	-18.8690	-49.010214	0.000364	3.636065	1.231932	0.029038
1531	7.6500e-01	-18.8177	-48.998115	0.000030	0.303005	0.102661	0.002420
1532	7.6550e-01	-18.7856	-48.986016	0.000030	0.303005	0.102661	0.002420
1533	7.6600e-01	-18.7487	-48.885188	0.000253	2.525045	0.855508	0.020165
1534	7.6650e-01	-18.7038	-48.687566	0.000495	4.949088	1.676796	0.039524
1535	7.6700e-01	-18.6620	-48.590772	0.000242	2.424043	0.821288	0.019359
1536	7.6750e-01	-18.6284	-48.619004	-0.000071	-0.707013	-0.239542	-0.005646
1537	7.6800e-01	-18.5898	-48.453647	0.000414	4.141074	1.403034	0.033071
1538	7.6850e-01	-18.5449	-48.372985	0.000202	2.020036	0.684407	0.016132
1539	7.6900e-01	-18.5000	-48.477845	-0.000263	-2.626047	-0.889729	-0.020972
1540	7.6950e-01	-18.4583	-48.231826	0.000616	6.161110	2.087440	0.049204
1541	7.7000e-01	-18.4342	-48.211661	0.000051	0.505009	0.171102	0.004033
1542	7.7050e-01	-18.3797	-48.122933	0.000222	2.222040	0.752847	0.017746
1543	7.7100e-01	-18.3412	-48.143098	-0.000051	-0.505009	-0.171102	-0.004033
1544	7.7150e-01	-18.3091	-48.042271	0.000253	2.525045	0.855508	0.020165
1545	7.7200e-01	-18.2674	-47.872880	0.000424	4.242076	1.437254	0.033878
1546	7.7250e-01	-18.2209	-47.836583	0.000091	0.909016	0.307983	0.007260
1547	7.7300e-01	-18.1776	-47.735755	0.000253	2.525045	0.855508	0.020165
1548	7.7350e-01	-18.1407	-47.772053	-0.000091	-0.909016	-0.307983	-0.007260
1549	7.7400e-01	-18.0925	-47.634928	0.000343	3.434061	1.163491	0.027425
1550	7.7450e-01	-18.0572	-47.614762	0.000051	0.505009	0.171102	0.004033
1551	7.7500e-01	-18.0236	-47.457471	0.000394	3.939070	1.334593	0.031458
1552	7.7550e-01	-17.9834	-47.384875	0.000182	1.818032	0.615966	0.014519
1553	7.7600e-01	-17.9401	-47.247750	0.000343	3.434061	1.163491	0.027425
1554	7.7650e-01	-17.9000	-47.146923	0.000253	2.525045	0.855508	0.020165
1555	7.7700e-01	-17.8728	-47.078360	0.000172	1.717031	0.581746	0.013713
1556	7.7750e-01	-17.8310	-46.985599	0.000232	2.323041	0.787068	0.018552
1557	7.7800e-01	-17.7861	-46.949301	0.000091	0.909016	0.307983	0.007260
1558	7.7850e-01	-17.7492	-46.755712	0.000485	4.848086	1.642576	0.038718
1559	7.7900e-01	-17.6995	-46.937202	-0.000455	-4.545081	-1.539915	-0.036298
1560	7.7950e-01	-17.6706	-46.763778	0.000434	4.343077	1.471474	0.034685
1561	7.8000e-01	-17.6305	-46.537925	0.000566	5.656101	1.916339	0.045171
1562	7.8050e-01	-17.5920	-46.449197	0.000222	2.222040	0.752847	0.017746
1563	7.8100e-01	-17.5407	-46.400799	0.000121	1.212022	0.410644	0.009679
1564	7.8150e-01	-17.5006	-46.332237	0.000172	1.717031	0.581746	0.013713
1565	7.8200e-01	-17.4749	-46.312071	0.000051	0.505009	0.171102	0.004033
1566	7.8250e-01	-17.4204	-46.066052	0.000616	6.161110	2.087440	0.049204
1567	7.8300e-01	-17.3835	-46.118483	-0.000131	-1.313023	-0.444864	-0.010486
1568	7.8350e-01	-17.3402	-46.001523	0.000293	2.929052	0.992390	0.023392
1569	7.8400e-01	-17.3017	-46.001523	0.000000	0.000000	0.000000	0.000000
1570	7.8450e-01	-17.2567	-45.892629	0.000273	2.727049	0.923949	0.021779
1571	7.8500e-01	-17.2407	-45.662742	0.000576	5.757103	1.950559	0.045977
1572	7.8550e-01	-17.1861	-45.658709	0.000010	0.101002	0.034220	0.000807
1573	7.8600e-01	-17.1412	-45.594180	0.000162	1.616029	0.547525	0.012906
1574	7.8650e-01	-17.1043	-45.440922	0.000384	3.838068	1.300373	0.030652
1575	7.8700e-01	-17.0626	-45.291697	0.000374	3.737067	1.266152	0.029845
1576	7.8750e-01	-17.0209	-45.336061	-0.000111	-1.111020	-0.376424	-0.008873
1577	7.8800e-01	-16.9760	-45.283631	0.000131	1.313023	0.444864	0.010486
1578	7.8850e-01	-16.9391	-45.219102	0.000162	1.616029	0.547525	0.012906
1579	7.8900e-01	-16.9006	-44.973083	0.000616	6.161110	2.087440	0.049204
1580	7.8950e-01	-16.8589	-45.098109	-0.000313	-3.131056	-1.060830	-0.025005
1581	7.9000e-01	-16.8268	-44.912586	0.000465	4.646083	1.574135	0.037105
1582	7.9050e-01	-16.7771	-44.896454	0.000040	0.404007	0.136881	0.003226
1583	7.9100e-01	-16.7402	-44.787560	0.000273	2.727049	0.923949	0.021779
1584	7.9150e-01	-16.7049	-44.577839	0.000525	5.252094	1.779457	0.041944
1585	7.9200e-01	-16.6616	-44.585905	-0.000020	-0.202004	-0.068441	-0.001613
1586	7.9250e-01	-16.6199	-44.448780	0.000343	3.434061	1.163491	0.027425
1587	7.9300e-01	-16.5814	-44.481044	-0.000081	-0.808014	-0.273763	-0.006453
1588	7.9350e-01	-16.5445	-44.307621	0.000434	4.343077	1.471474	0.034685
1589	7.9400e-01	-16.5060	-44.307621	0.000000	0.000000	0.000000	0.000000
1590	7.9450e-01	-16.4594	-44.206794	0.000253	2.525045	0.855508	0.020165
1591	7.9500e-01	-16.4177	-44.085801	0.000303	3.030054	1.026610	0.024199
1592	7.9550e-01	-16.3888	-44.049503	0.000091	0.909016	0.307983	0.007260
1593	7.9600e-01	-16.3439	-43.964808	0.000212	2.121038	0.718627	0.016939
1594	7.9650e-01	-16.2942	-43.803484	0.000404	4.040072	1.368813	0.032265
1595	7.9700e-01	-16.2573	-43.819616	-0.000040	-0.404007	-0.136881	-0.003226
1596	7.9750e-01	-16.2188	-43.738954	0.000202	2.020036	0.684407	0.016132
1597	7.9800e-01	-16.1851	-43.484869	0.000636	6.363113	2.155881	0.050817
1598	7.9850e-01	-16.1482	-43.331611	0.000384	3.838068	1.300373	0.030652
1599	7.9900e-01	-16.0985	-43.392108	-0.000152	-1.515027	-0.513305	-0.012099
1600	7.9950e-01	-16.0632	-43.315479	0.000192	1.919034	0.650186	0.015326
1601	8.0000e-01	-16.0263	-43.198519	0.000293	2.929052	0.992390	0.023392
1602	8.0050e-01	-15.9798	-43.073493	0.000313	3.131056	1.060830	0.025005
1603	8.0100e-01	-15.9397	-43.105758	-0.000081	-0.808014	-0.273763	-0.006453
1604	8.0150e-01	-15.9092	-43.017030	0.000222	2.222040	0.752847	0.017746
1605	8.0200e-01	-15.8610	-42.819408	0.000495	4.949088	1.676796	0.039524
1606	8.0250e-01	-15.8274	-42.750845	0.000172	1.717031	0.581746	0.013713
1607	8.0300e-01	-15.7808	-42.730680	0.000051	0.505009	0.171102	0.004033
1608	8.0350e-01	-15.7423	-42.601621	0.000323	3.232058	1.095051	0.025812
1609	8.0400e-01	-15.7022	-42.399966	0.000505	5.050090	1.711017	0.040331
1610	8.0450e-01	-15.6573	-42.412065	-0.000030	-0.303005	-0.102661	-0.002420
1611	8.0500e-01	-15.6332	-42.363668	0.000121	1.212022	0.410644	0.009679
1612	8.0550e-01	-15.5819	-42.210410	0.000384	3.838068	1.300373	0.030652
1613	8.0600e-01	-15.5370	-42.105549	0.000263	2.626047	0.889729	0.020972
1614	8.0650e-01	-15.4985	-42.061185	0.000111	1.111020	0.376424	0.008873
1615	8.0700e-01	-15.4664	-42.061185	0.000000	0.000000	0.000000	0.000000
1616	8.0750e-01	-15.4151	-41.992623	0.000172	1.717031	0.581746	0.013713
1617	8.0800e-01	-15.3862	-41.863563	0.000323	3.232058	1.095051	0.025812
1618	8.0850e-01	-15.3397	-41.815166	0.000121	1.212022	0.410644	0.009679
1619	8.0900e-01	-15.2964	-41.686107	0.000323	3.232058	1.095051	0.025812
1620	8.0950e-01	-15.2659	-41.512684	0.000434	4.343077	1.471474	0.034685
1621	8.1000e-01	-15.2161	-41.440088	0.000182	1.818032	0.615966	0.014519
1622	8.1050e-01	-15.1905	-41.242466	0.000495	4.949088	1.676796	0.039524
1623	8.1100e-01	-15.1504	-41.202135	0.000101	1.010018	0.342203	0.008066
1624	8.1150e-01	-15.0990	-41.218268	-0.000040	-0.404007	-0.136881	-0.003226
1625	8.1200e-01	-15.0637	-41.117440	0.000253	2.525045	0.855508	0.020165
1626	8.1250e-01	-15.0236	-41.024679	0.000232	2.323041	0.787068	0.018552
1627	8.1300e-01	-14.9803	-40.980315	0.000111	1.111020	0.376424	0.008873
1628	8.1350e-01	-14.9418	-40.818991	0.000404	4.040072	1.368813	0.032265
1629	8.1400e-01	-14.9049	-40.693965	0.000313	3.131056	1.060830	0.025005
1630	8.1450e-01	-14.8664	-40.617336	0.000192	1.919034	0.650186	0.015326
1631	8.1500e-01	-14.8167	-40.585071	0.000081	0.808014	0.273763	0.006453
1632	8.1550e-01	-14.7782	-40.476178	0.000273	2.727049	0.923949	0.021779
1633	8.1600e-01	-14.7509	-40.375350	0.000253	2.525045	0.855508	0.020165
1634	8.1650e-01	-14.7028	-40.282589	0.000232	2.323041	0.787068	0.018552
1635	8.1700e-01	-14.6595	-40.246291	0.000091	0.909016	0.307983	0.007260
1636	8.1750e-01	-14.6322	-40.262423	-0.000040	-0.404007	-0.136881	-0.003226
1637	8.1800e-01	-14.5809	-40.060768	0.000505	5.050090	1.711017	0.040331
1638	8.1850e-01	-14.5376	-40.113199	-0.000131	-1.313023	-0.444864	-0.010486
1639	8.1900e-01	-14.5055	-39.976073	0.000343	3.434061	1.163491	0.027425
1640	8.1950e-01	-14.4590	-39.851047	0.000313	3.131056	1.060830	0.025005
1641	8.2000e-01	-14.4301	-39.774418	0.000192	1.919034	0.650186	0.015326
1642	8.2050e-01	-14.3868	-39.588896	0.000465	4.646083	1.574135	0.037105
1643	8.2100e-01	-14.3434	-39.516300	0.000182	1.818032	0.615966	0.014519
1644	8.2150e-01	-14.2985	-39.528399	-0.000030	-0.303005	-0.102661	-0.002420
1645	8.2200e-01	-14.2600	-39.294480	0.000586	5.858104	1.984779	0.046784
1646	8.2250e-01	-14.2167	-39.294480	0.000000	0.000000	0.000000	0.000000
1647	8.2300e-01	-14.1894	-39.262215	0.000081	0.808014	0.273763	0.006453
1648	8.2350e-01	-14.1413	-39.217851	0.000111	1.111020	0.376424	0.008873
1649	8.2400e-01	-14.1060	-39.121056	0.000242	2.424043	0.821288	0.019359
1650	8.2450e-01	-14.0611	-38.935534	0.000465	4.646083	1.574135	0.037105
1651	8.2500e-01	-14.0322	-38.733879	0.000505	5.050090	1.711017	0.040331
1652	8.2550e-01	-13.9873	-38.754044	-0.000051	-0.505009	-0.171102	-0.004033
1653	8.2600e-01	-13.9472	-38.673382	0.000202	2.020036	0.684407	0.016132
1654	8.2650e-01	-13.9071	-38.532224	0.000354	3.535063	1.197712	0.028232
1655	8.2700e-01	-13.8542	-38.374933	0.000394	3.939070	1.334593	0.031458
1656	8.2750e-01	-13.8157	-38.342668	0.000081	0.808014	0.273763	0.006453
1657	8.2800e-01	-13.7820	-38.205543	0.000343	3.434061	1.163491	0.027425
1658	8.2850e-01	-13.7467	-38.120848	0.000212	2.121038	0.718627	0.016939
1659	8.2900e-01	-13.7082	-38.120848	0.000000	0.000000	0.000000	0.000000
1660	8.2950e-01	-13.6665	-38.145047	-0.000061	-0.606011	-0.205322	-0.004840
1661	8.3000e-01	-13.6215	-37.882895	0.000657	6.565117	2.224322	0.052430
1662	8.3050e-01	-13.5830	-37.786101	0.000242	2.424043	0.821288	0.019359
1663	8.3100e-01	-13.5445	-37.858697	-0.000182	-1.818032	-0.615966	-0.014519
1664	8.3150e-01	-13.5012	-37.572347	0.000717	7.171128	2.429644	0.057270
1665	8.3200e-01	-13.4643	-37.572347	0.000000	0.000000	0.000000	0.000000
1666	8.3250e-01	-13.4258	-37.431188	0.000354	3.535063	1.197712	0.028232
1667	8.3300e-01	-13.3729	-37.310195	0.000303	3.030054	1.026610	0.024199
1668	8.3350e-01	-13.3424	-37.249699	0.000152	1.515027	0.513305	0.012099
1669	8.3400e-01	-13.3007	-37.197268	0.000131	1.313023	0.444864	0.010486
1670	8.3450e-01	-13.2590	-37.189202	0.000020	0.202004	0.068441	0.001613
1671	8.3500e-01	-13.2157	-37.177103	0.000030	0.303005	0.102661	0.002420
1672	8.3550e-01	-13.1820	-36.906885	0.000677	6.767120	2.292762	0.054044
1673	8.3600e-01	-13.1467	-36.810091	0.000242	2.424043	0.821288	0.019359
1674	8.3650e-01	-13.1034	-36.745561	0.000162	1.616029	0.547525	0.012906
1675	8.3700e-01	-13.0649	-36.620535	0.000313	3.131056	1.060830	0.025005
1676	8.3750e-01	-13.0183	-36.487443	0.000333	3.333059	1.129271	0.026618
1677	8.3800e-01	-12.9782	-36.560039	-0.000182	-1.818032	-0.615966	-0.014519
1678	8.3850e-01	-12.9381	-36.551973	0.000020	0.202004	0.068441	0.001613
1679	8.3900e-01	-12.8996	-36.180928	0.000929	9.292165	3.148271	0.074209
1680	8.3950e-01	-12.8547	-36.180928	0.000000	0.000000	0.000000	0.000000
1681	8.4000e-01	-12.8242	-36.051868	0.000323	3.232058	1.095051	0.025812
1682	8.4050e-01	-12.7729	-36.076067	-0.000061	-0.606011	-0.205322	-0.004840
1683	8.4100e-01	-12.7456	-35.894578	0.000455	4.545081	1.539915	0.036298
1684	8.4150e-01	-12.7055	-35.793750	0.000253	2.525045	0.855508	0.020165
1685	8.4200e-01	-12.6638	-35.797783	-0.000010	-0.101002	-0.034220	-0.000807
1686	8.4250e-01	-12.6269	-35.644525	0.000384	3.838068	1.300373	0.030652
1687	8.4300e-01	-12.5820	-35.584029	0.000152	1.515027	0.513305	0.012099
1688	8.4350e-01	-12.5499	-35.547731	0.000091	0.909016	0.307983	0.007260
1689	8.4400e-01	-12.4970	-35.442871	0.000263	2.626047	0.889729	0.020972
1690	8.4450e-01	-12.4601	-35.301712	0.000354	3.535063	1.197712	0.028232
1691	8.4500e-01	-12.4280	-35.225083	0.000192	1.919034	0.650186	0.015326
1692	8.4550e-01	-12.3799	-35.180719	0.000111	1.111020	0.376424	0.008873
1693	8.4600e-01	-12.3510	-35.007296	0.000434	4.343077	1.471474	0.034685
1694	8.4650e-01	-12.3045	-34.942766	0.000162	1.616029	0.547525	0.012906
1695	8.4700e-01	-12.2612	-34.757244	0.000465	4.646083	1.574135	0.037105
1696	8.4750e-01	-12.2226	-34.704813	0.000131	1.313023	0.444864	0.010486
1697	8.4800e-01	-12.1841	-34.672549	0.000081	0.808014	0.273763	0.006453
1698	8.4850e-01	-12.1456	-34.482993	0.000475	4.747085	1.608356	0.037911
1699	8.4900e-01	-12.1039	-34.454761	0.000071	0.707013	0.239542	0.005646
1700	8.4950e-01	-12.0542	-34.482993	-0.000071	-0.707013	-0.239542	-0.005646
1701	8.5000e-01	-12.0221	-34.374099	0.000273	2.727049	0.923949	0.021779
1702	8.5050e-01	-11.9836	-34.212775	0.000404	4.040072	1.368813	0.032265
1703	8.5100e-01	-11.9403	-34.132113	0.000202	2.020036	0.684407	0.016132
1704	8.5150e-01	-11.8986	-33.902227	0.000576	5.757103	1.950559	0.045977
1705	8.5200e-01	-11.8601	-33.890128	0.000030	0.303005	0.102661	0.002420
1706	8.5250e-01	-11.8184	-33.954657	-0.000162	-1.616029	-0.547525	-0.012906
1707	8.5300e-01	-11.7895	-33.805432	0.000374	3.737067	1.266152	0.029845
1708	8.5350e-01	-11.7414	-33.603778	0.000505	5.050090	1.711017	0.040331
1709	8.5400e-01	-11.6997	-33.587645	0.000040	0.404007	0.136881	0.003226
1710	8.5450e-01	-11.6660	-33.575546	0.000030	0.303005	0.102661	0.002420
1711	8.5500e-01	-11.6179	-33.442454	0.000333	3.333059	1.129271	0.026618
1712	8.5550e-01	-11.5810	-33.309361	0.000333	3.333059	1.129271	0.026618
1713	8.5600e-01	-11.5521	-33.208534	0.000253	2.525045	0.855508	0.020165
1714	8.5650e-01	-11.4991	-33.172236	0.000091	0.909016	0.307983	0.007260
1715	8.5700e-01	-11.4655	-32.970581	0.000505	5.050090	1.711017	0.040331
1716	8.5750e-01	-11.4189	-32.902018	0.000172	1.717031	0.581746	0.013713
1717	8.5800e-01	-11.3884	-32.873787	0.000071	0.707013	0.239542	0.005646
1718	8.5850e-01	-11.3371	-32.692297	0.000455	4.545081	1.539915	0.036298
1719	8.5900e-01	-11.2970	-32.591470	0.000253	2.525045	0.855508	0.020165
1720	8.5950e-01	-11.2601	-32.547106	0.000111	1.111020	0.376424	0.008873
1721	8.6000e-01	-11.2280	-32.430146	0.000293	2.929052	0.992390	0.023392
1722	8.6050e-01	-11.1815	-32.297054	0.000333	3.333059	1.129271	0.026618
1723	8.6100e-01	-11.1446	-32.305120	-0.000020	-0.202004	-0.068441	-0.001613
1724	8.6150e-01	-11.1029	-32.236557	0.000172	1.717031	0.581746	0.013713
1725	8.6200e-01	-11.0548	-32.095399	0.000354	3.535063	1.197712	0.028232
1726	8.6250e-01	-11.0243	-32.030869	0.000162	1.616029	0.547525	0.012906
1727	8.6300e-01	-10.9874	-31.966340	0.000162	1.616029	0.547525	0.012906
1728	8.6350e-01	-10.9441	-31.780817	0.000465	4.646083	1.574135	0.037105
1729	8.6400e-01	-10.9056	-31.780817	0.000000	0.000000	0.000000	0.000000
1730	8.6450e-01	-10.8591	-31.603361	0.000444	4.444079	1.505695	0.035491
1731	8.6500e-01	-10.8238	-31.482368	0.000303	3.030054	1.026610	0.024199
1732	8.6550e-01	-10.7804	-31.385573	0.000242	2.424043	0.821288	0.019359
1733	8.6600e-01	-10.7419	-31.349275	0.000091	0.909016	0.307983	0.007260
1734	8.6650e-01	-10.6970	-31.191985	0.000394	3.939070	1.334593	0.031458
1735	8.6700e-01	-10.6681	-31.147621	0.000111	1.111020	0.376424	0.008873
1736	8.6750e-01	-10.6345	-30.949999	0.000495	4.949088	1.676796	0.039524
1737	8.6800e-01	-10.5751	-30.849171	0.000253	2.525045	0.855508	0.020165
1738	8.6850e-01	-10.5446	-30.925800	-0.000192	-1.919034	-0.650186	-0.015326
1739	8.6900e-01	-10.5061	-30.792708	0.000333	3.333059	1.129271	0.026618
1740	8.6950e-01	-10.4628	-30.635417	0.000394	3.939070	1.334593	0.031458
1741	8.7000e-01	-10.4195	-30.595086	0.000101	1.010018	0.342203	0.008066
1742	8.7050e-01	-10.3922	-30.445861	0.000374	3.737067	1.266152	0.029845
1743	8.7100e-01	-10.3457	-30.308736	0.000343	3.434061	1.163491	0.027425
1744	8.7150e-01	-10.3040	-30.377299	-0.000172	-1.717031	-0.581746	-0.013713
1745	8.7200e-01	-10.2559	-30.171611	0.000515	5.151092	1.745237	0.041138
1746	8.7250e-01	-10.2158	-30.119180	0.000131	1.313023	0.444864	0.010486
1747	8.7300e-01	-10.1917	-30.042551	0.000192	1.919034	0.650186	0.015326
1748	8.7350e-01	-10.1420	-29.917525	0.000313	3.131056	1.060830	0.025005
1749	8.7400e-01	-10.1002	-29.840897	0.000192	1.919034	0.650186	0.015326
1750	8.7450e-01	-10.0585	-29.691672	0.000374	3.737067	1.266152	0.029845
1751	8.7500e-01	-10.0200	-29.707804	-0.000040	-0.404007	-0.136881	-0.003226
1752	8.7550e-01	-9.9928	-29.522282	0.000465	4.646083	1.574135	0.037105
1753	8.7600e-01	-9.9446	-29.449686	0.000182	1.818032	0.615966	0.014519
1754	8.7650e-01	-9.9061	-29.352892	0.000242	2.424043	0.821288	0.019359
1755	8.7700e-01	-9.8580	-29.207700	0.000364	3.636065	1.231932	0.029038
1756	8.7750e-01	-9.8211	-29.038310	0.000424	4.242076	1.437254	0.033878
1757	8.7800e-01	-9.7858	-29.002012	0.000091	0.909016	0.307983	0.007260
1758	8.7850e-01	-9.7473	-28.864887	0.000343	3.434061	1.163491	0.027425
1759	8.7900e-01	-9.7024	-28.848754	0.000040	0.404007	0.136881	0.003226
1760	8.7950e-01	-9.6671	-28.687430	0.000404	4.040072	1.368813	0.032265
1761	8.8000e-01	-9.6222	-28.505941	0.000455	4.545081	1.539915	0.036298
1762	8.8050e-01	-9.5885	-28.509974	-0.000010	-0.101002	-0.034220	-0.000807
1763	8.8100e-01	-9.5532	-28.437378	0.000182	1.818032	0.615966	0.014519
1764	8.8150e-01	-9.5019	-28.263955	0.000434	4.343077	1.471474	0.034685
1765	8.8200e-01	-9.4618	-28.211525	0.000131	1.313023	0.444864	0.010486
1766	8.8250e-01	-9.4185	-28.251856	-0.000101	-1.010018	-0.342203	-0.008066
1767	8.8300e-01	-9.3751	-28.159094	0.000232	2.323041	0.787068	0.018552
1768	8.8350e-01	-9.3511	-27.913075	0.000616	6.161110	2.087440	0.049204
1769	8.8400e-01	-9.3029	-27.953406	-0.000101	-1.010018	-0.342203	-0.008066
1770	8.8450e-01	-9.2612	-27.832413	0.000303	3.030054	1.026610	0.024199
1771	8.8500e-01	-9.2243	-27.683189	0.000374	3.737067	1.266152	0.029845
1772	8.8550e-01	-9.1794	-27.606560	0.000192	1.919034	0.650186	0.015326
1773	8.8600e-01	-9.1489	-27.380706	0.000566	5.656101	1.916339	0.045171
1774	8.8650e-01	-9.0960	-27.275846	0.000263	2.626047	0.889729	0.020972
1775	8.8700e-01	-9.0527	-27.279879	-0.000010	-0.101002	-0.034220	-0.000807
1776	8.8750e-01	-9.0190	-27.255680	0.000061	0.606011	0.205322	0.004840
1777	8.8800e-01	-8.9805	-27.094356	0.000404	4.040072	1.368813	0.032265
1778	8.8850e-01	-8.9388	-27.045959	0.000121	1.212022	0.410644	0.009679
1779	8.8900e-01	-8.9003	-26.912867	0.000333	3.333059	1.129271	0.026618
1780	8.8950e-01	-8.8618	-26.868503	0.000111	1.111020	0.376424	0.008873
1781	8.9000e-01	-8.8153	-26.666848	0.000505	5.050090	1.711017	0.040331
1782	8.9050e-01	-8.7880	-26.594252	0.000182	1.818032	0.615966	0.014519
1783	8.9100e-01	-8.7447	-26.428895	0.000414	4.141074	1.403034	0.033071
1784	8.9150e-01	-8.6965	-26.525690	-0.000242	-2.424043	-0.821288	-0.019359
1785	8.9200e-01	-8.6629	-26.291770	0.000586	5.858104	1.984779	0.046784
1786	8.9250e-01	-8.6195	-26.328068	-0.000091	-0.909016	-0.307983	-0.007260
1787	8.9300e-01	-8.5826	-26.150611	0.000444	4.444079	1.505695	0.035491
1788	8.9350e-01	-8.5425	-26.013486	0.000343	3.434061	1.163491	0.027425
1789	8.9400e-01	-8.5024	-25.916692	0.000242	2.424043	0.821288	0.019359
1790	8.9450e-01	-8.4559	-25.807798	0.000273	2.727049	0.923949	0.021779
1791	8.9500e-01	-8.4238	-25.698904	0.000273	2.727049	0.923949	0.021779
1792	8.9550e-01	-8.3821	-25.618242	0.000202	2.020036	0.684407	0.016132
1793	8.9600e-01	-8.3356	-25.585978	0.000081	0.808014	0.273763	0.006453
1794	8.9650e-01	-8.2987	-25.464985	0.000303	3.030054	1.026610	0.024199
1795	8.9700e-01	-8.2634	-25.263330	0.000505	5.050090	1.711017	0.040331
1796	8.9750e-01	-8.2201	-25.279462	-0.000040	-0.404007	-0.136881	-0.003226
1797	8.9800e-01	-8.1848	-25.073774	0.000515	5.151092	1.745237	0.041138
1798	8.9850e-01	-8.1463	-25.033443	0.000101	1.010018	0.342203	0.008066
1799	8.9900e-01	-8.1094	-24.924549	0.000273	2.727049	0.923949	0.021779
1800	8.9950e-01	-8.0629	-24.807590	0.000293	2.929052	0.992390	0.023392
1801	9.0000e-01	-8.0260	-24.662398	0.000364	3.636065	1.231932	0.029038
1802	9.0050e-01	-7.9746	-24.634166	0.000071	0.707013	0.239542	0.005646
1803	9.0100e-01	-7.9458	-24.497041	0.000343	3.434061	1.163491	0.027425
1804	9.0150e-01	-7.8992	-24.295386	0.000505	5.050090	1.711017	0.040331
1805	9.0200e-01	-7.8527	-24.251022	0.000111	1.111020	0.376424	0.008873
1806	9.0250e-01	-7.8142	-24.267154	-0.000040	-0.404007	-0.136881	-0.003226
1807	9.0300e-01	-7.7725	-24.283287	-0.000040	-0.404007	-0.136881	-0.003226
1808	9.0350e-01	-7.7404	-24.069532	0.000535	5.353095	1.813678	0.042751
1809	9.0400e-01	-7.7067	-23.960639	0.000273	2.727049	0.923949	0.021779
1810	9.0450e-01	-7.6586	-23.771083	0.000475	4.747085	1.608356	0.037911
1811	9.0500e-01	-7.6233	-23.726719	0.000111	1.111020	0.376424	0.008873
1812	9.0550e-01	-7.5848	-23.633958	0.000232	2.323041	0.787068	0.018552
1813	9.0600e-01	-7.5479	-23.488766	0.000364	3.636065	1.231932	0.029038
1814	9.0650e-01	-7.5030	-23.444402	0.000111	1.111020	0.376424	0.008873
1815	9.0700e-01	-7.4677	-23.291144	0.000384	3.838068	1.300373	0.030652
1816	9.0750e-01	-7.4276	-23.238714	0.000131	1.313023	0.444864	0.010486
1817	9.0800e-01	-7.3811	-23.174185	0.000162	1.616029	0.547525	0.012906
1818	9.0850e-01	-7.3442	-23.049159	0.000313	3.131056	1.060830	0.025005
1819	9.0900e-01	-7.3025	-22.968497	0.000202	2.020036	0.684407	0.016132
1820	9.0950e-01	-7.2495	-22.839437	0.000323	3.232058	1.095051	0.025812
1821	9.1000e-01	-7.2190	-22.754742	0.000212	2.121038	0.718627	0.016939
1822	9.1050e-01	-7.1757	-22.742643	0.000030	0.303005	0.102661	0.002420
1823	9.1100e-01	-7.1388	-22.496624	0.000616	6.161110	2.087440	0.049204
1824	9.1150e-01	-7.1051	-22.500657	-0.000010	-0.101002	-0.034220	-0.000807
1825	9.1200e-01	-7.0586	-22.299002	0.000505	5.050090	1.711017	0.040331
1826	9.1250e-01	-7.0249	-22.250605	0.000121	1.212022	0.410644	0.009679
1827	9.1300e-01	-6.9848	-22.113480	0.000343	3.434061	1.163491	0.027425
1828	9.1350e-01	-6.9415	-22.020718	0.000232	2.323041	0.787068	0.018552
1829	9.1400e-01	-6.8982	-21.940056	0.000202	2.020036	0.684407	0.016132
1830	9.1450e-01	-6.8645	-21.778732	0.000404	4.040072	1.368813	0.032265
1831	9.1500e-01	-6.8244	-21.758567	0.000051	0.505009	0.171102	0.004033
1832	9.1550e-01	-6.7827	-21.657739	0.000253	2.525045	0.855508	0.020165
1833	9.1600e-01	-6.7474	-21.585144	0.000182	1.818032	0.615966	0.014519
1834	9.1650e-01	-6.7089	-21.448018	0.000343	3.434061	1.163491	0.027425
1835	9.1700e-01	-6.6576	-21.367356	0.000202	2.020036	0.684407	0.016132
1836	9.1750e-01	-6.6110	-21.371389	-0.000010	-0.101002	-0.034220	-0.000807
1837	9.1800e-01	-6.5774	-21.206032	0.000414	4.141074	1.403034	0.033071
1838	9.1850e-01	-6.5276	-21.076973	0.000323	3.232058	1.095051	0.025812
1839	9.1900e-01	-6.5020	-21.064874	0.000030	0.303005	0.102661	0.002420
1840	9.1950e-01	-6.4586	-20.786590	0.000697	6.969124	2.361203	0.055657
1841	9.2000e-01	-6.4298	-20.722061	0.000162	1.616029	0.547525	0.012906
1842	9.2050e-01	-6.3784	-20.705928	0.000040	0.404007	0.136881	0.003226
1843	9.2100e-01	-6.3528	-20.540571	0.000414	4.141074	1.403034	0.033071
1844	9.2150e-01	-6.3094	-20.407479	0.000333	3.333059	1.129271	0.026618
1845	9.2200e-01	-6.2677	-20.423611	-0.000040	-0.404007	-0.136881	-0.003226
1846	9.2250e-01	-6.2324	-20.306651	0.000293	2.929052	0.992390	0.023392
1847	9.2300e-01	-6.1811	-20.217923	0.000222	2.222040	0.752847	0.017746
1848	9.2350e-01	-6.1458	-19.984004	0.000586	5.858104	1.984779	0.046784
1849	9.2400e-01	-6.1105	-19.955772	0.000071	0.707013	0.239542	0.005646
1850	9.2450e-01	-6.0608	-19.879143	0.000192	1.919034	0.650186	0.015326
1851	9.2500e-01	-6.0319	-19.681521	0.000495	4.949088	1.676796	0.039524
1852	9.2550e-01	-5.9886	-19.568594	0.000283	2.828050	0.958169	0.022585
1853	9.2600e-01	-5.9517	-19.540363	0.000071	0.707013	0.239542	0.005646
1854	9.2650e-01	-5.9036	-19.467767	0.000182	1.818032	0.615966	0.014519
1855	9.2700e-01	-5.8667	-19.334675	0.000333	3.333059	1.129271	0.026618
1856	9.2750e-01	-5.8250	-19.092689	0.000606	6.060108	2.053220	0.048397
1857	9.2800e-01	-5.7817	-19.064457	0.000071	0.707013	0.239542	0.005646
1858	9.2850e-01	-5.7448	-19.040259	0.000061	0.606011	0.205322	0.004840
1859	9.2900e-01	-5.7079	-18.919266	0.000303	3.030054	1.026610	0.024199
1860	9.2950e-01	-5.6726	-18.878935	0.000101	1.010018	0.342203	0.008066
1861	9.3000e-01	-5.6164	-18.705511	0.000434	4.343077	1.471474	0.034685
1862	9.3050e-01	-5.5875	-18.645015	0.000152	1.515027	0.513305	0.012099
1863	9.3100e-01	-5.5506	-18.515956	0.000323	3.232058	1.095051	0.025812
1864	9.3150e-01	-5.5057	-18.511923	0.000010	0.101002	0.034220	0.000807
1865	9.3200e-01	-5.4688	-18.273970	0.000596	5.959106	2.019000	0.047591
1866	9.3250e-01	-5.4271	-18.072315	0.000505	5.050090	1.711017	0.040331
1867	9.3300e-01	-5.3854	-18.080381	-0.000020	-0.202004	-0.068441	-0.001613
1868	9.3350e-01	-5.3373	-17.906958	0.000434	4.343077	1.471474	0.034685
1869	9.3400e-01	-5.2924	-17.939223	-0.000081	-0.808014	-0.273763	-0.006453
1870	9.3450e-01	-5.2699	-17.842428	0.000242	2.424043	0.821288	0.019359
1871	9.3500e-01	-5.2170	-17.725468	0.000293	2.929052	0.992390	0.023392
1872	9.3550e-01	-5.1865	-17.588343	0.000343	3.434061	1.163491	0.027425
1873	9.3600e-01	-5.1464	-17.604475	-0.000040	-0.404007	-0.136881	-0.003226
1874	9.3650e-01	-5.1015	-17.467350	0.000343	3.434061	1.163491	0.027425
1875	9.3700e-01	-5.0710	-17.358456	0.000273	2.727049	0.923949	0.021779
1876	9.3750e-01	-5.0293	-17.209232	0.000374	3.737067	1.266152	0.029845
1877	9.3800e-01	-4.9892	-17.116470	0.000232	2.323041	0.787068	0.018552
1878	9.3850e-01	-4.9426	-16.959180	0.000394	3.939070	1.334593	0.031458
1879	9.3900e-01	-4.8993	-17.047908	-0.000222	-2.222040	-0.752847	-0.017746
1880	9.3950e-01	-4.8624	-16.918849	0.000323	3.232058	1.095051	0.025812
1881	9.4000e-01	-4.8336	-16.628466	0.000727	7.272129	2.463864	0.058077
1882	9.4050e-01	-4.7838	-16.495373	0.000333	3.333059	1.129271	0.026618
1883	9.4100e-01	-4.7453	-16.350182	0.000364	3.636065	1.231932	0.029038
1884	9.4150e-01	-4.7004	-16.442943	-0.000232	-2.323041	-0.787068	-0.018552
1885	9.4200e-01	-4.6731	-16.265487	0.000444	4.444079	1.505695	0.035491
1886	9.4250e-01	-4.6266	-16.152560	0.000283	2.828050	0.958169	0.022585
1887	9.4300e-01	-4.5801	-16.027534	0.000313	3.131056	1.060830	0.025005
1888	9.4350e-01	-4.5512	-15.918640	0.000273	2.727049	0.923949	0.021779
1889	9.4400e-01	-4.5063	-15.829912	0.000222	2.222040	0.752847	0.017746
1890	9.4450e-01	-4.4630	-15.793614	0.000091	0.909016	0.307983	0.007260
1891	9.4500e-01	-4.4197	-15.676654	0.000293	2.929052	0.992390	0.023392
1892	9.4550e-01	-4.3812	-15.579860	0.000242	2.424043	0.821288	0.019359
1893	9.4600e-01	-4.3378	-15.438701	0.000354	3.535063	1.197712	0.028232
1894	9.4650e-01	-4.3074	-15.321742	0.000293	2.929052	0.992390	0.023392
1895	9.4700e-01	-4.2608	-15.329808	-0.000020	-0.202004	-0.068441	-0.001613
1896	9.4750e-01	-4.2352	-15.059590	0.000677	6.767120	2.292762	0.054044
1897	9.4800e-01	-4.1838	-14.962796	0.000242	2.424043	0.821288	0.019359
1898	9.4850e-01	-4.1405	-14.890200	0.000182	1.818032	0.615966	0.014519
1899	9.4900e-01	-4.1068	-14.866001	0.000061	0.606011	0.205322	0.004840
1900	9.4950e-01	-4.0699	-14.660313	0.000515	5.151092	1.745237	0.041138
1901	9.5000e-01	-4.0202	-14.656280	0.000010	0.101002	0.034220	0.000807
1902	9.5050e-01	-3.9833	-14.373963	0.000707	7.070126	2.395423	0.056463
1903	9.5100e-01	-3.9432	-14.329599	0.000111	1.111020	0.376424	0.008873
1904	9.5150e-01	-3.9047	-14.248937	0.000202	2.020036	0.684407	0.016132
1905	9.5200e-01	-3.8726	-14.148110	0.000253	2.525045	0.855508	0.020165
1906	9.5250e-01	-3.8293	-14.035183	0.000283	2.828050	0.958169	0.022585
1907	9.5300e-01	-3.7860	-13.978720	0.000141	1.414025	0.479085	0.011293
1908	9.5350e-01	-3.7427	-13.793197	0.000465	4.646083	1.574135	0.037105
1909	9.5400e-01	-3.7058	-13.704469	0.000222	2.222040	0.752847	0.017746
1910	9.5450e-01	-3.6593	-13.611708	0.000232	2.323041	0.787068	0.018552
1911	9.5500e-01	-3.6175	-13.607675	0.000010	0.101002	0.034220	0.000807
1912	9.5550e-01	-3.5823	-13.494748	0.000283	2.828050	0.958169	0.022585
1913	9.5600e-01	-3.5389	-13.414086	0.000202	2.020036	0.684407	0.016132
1914	9.5650e-01	-3.5052	-13.260828	0.000384	3.838068	1.300373	0.030652
1915	9.5700e-01	-3.4635	-13.103537	0.000394	3.939070	1.334593	0.031458
1916	9.5750e-01	-3.4266	-13.047074	0.000141	1.414025	0.479085	0.011293
1917	9.5800e-01	-3.3833	-12.849452	0.000495	4.949088	1.676796	0.039524
1918	9.5850e-01	-3.3336	-12.829287	0.000051	0.505009	0.171102	0.004033
1919	9.5900e-01	-3.2999	-12.768790	0.000152	1.515027	0.513305	0.012099
1920	9.5950e-01	-3.2694	-12.663930	0.000263	2.626047	0.889729	0.020972
1921	9.6000e-01	-3.2309	-12.486473	0.000444	4.444079	1.505695	0.035491
1922	9.6050e-01	-3.1860	-12.317083	0.000424	4.242076	1.437254	0.033878
1923	9.6100e-01	-3.1523	-12.276752	0.000101	1.010018	0.342203	0.008066
1924	9.6150e-01	-3.0994	-12.175925	0.000253	2.525045	0.855508	0.020165
1925	9.6200e-01	-3.0657	-12.058965	0.000293	2.929052	0.992390	0.023392
1926	9.6250e-01	-3.0368	-11.970237	0.000222	2.222040	0.752847	0.017746
1927	9.6300e-01	-2.9999	-11.917806	0.000131	1.313023	0.444864	0.010486
1928	9.6350e-01	-2.9550	-11.861343	0.000141	1.414025	0.479085	0.011293
1929	9.6400e-01	-2.9069	-11.708085	0.000384	3.838068	1.300373	0.030652
1930	9.6450e-01	-2.8668	-11.518530	0.000475	4.747085	1.608356	0.037911
1931	9.6500e-01	-2.8379	-11.502397	0.000040	0.404007	0.136881	0.003226
1932	9.6550e-01	-2.7721	-11.341073	0.000404	4.040072	1.368813	0.032265
1933	9.6600e-01	-2.7545	-11.199915	0.000354	3.535063	1.197712	0.028232
1934	9.6650e-01	-2.7160	-11.006326	0.000485	4.848086	1.642576	0.038718
1935	9.6700e-01	-2.6630	-10.857101	0.000374	3.737067	1.266152	0.029845
1936	9.6750e-01	-2.6229	-10.889366	-0.000081	-0.808014	-0.273763	-0.006453
1937	9.6800e-01	-2.5860	-10.768373	0.000303	3.030054	1.026610	0.024199
1938	9.6850e-01	-2.5555	-10.639314	0.000323	3.232058	1.095051	0.025812
1939	9.6900e-01	-2.5090	-10.586884	0.000131	1.313023	0.444864	0.010486
1940	9.6950e-01	-2.4673	-10.449758	0.000343	3.434061	1.163491	0.027425
1941	9.7000e-01	-2.4192	-10.340865	0.000273	2.727049	0.923949	0.021779
1942	9.7050e-01	-2.3807	-10.385229	-0.000111	-1.111020	-0.376424	-0.008873
1943	9.7100e-01	-2.3406	-10.131144	0.000636	6.363113	2.155881	0.050817
1944	9.7150e-01	-2.3037	-10.042416	0.000222	2.222040	0.752847	0.017746
1945	9.7200e-01	-2.2652	-9.897224	0.000364	3.636065	1.231932	0.029038
1946	9.7250e-01	-2.2299	-9.877058	0.000051	0.505009	0.171102	0.004033
1947	9.7300e-01	-2.1834	-9.691536	0.000465	4.646083	1.574135	0.037105
1948	9.7350e-01	-2.1497	-9.562477	0.000323	3.232058	1.095051	0.025812
1949	9.7400e-01	-2.1015	-9.437451	0.000313	3.131056	1.060830	0.025005
1950	9.7450e-01	-2.0630	-9.380987	0.000141	1.414025	0.479085	0.011293
1951	9.7500e-01	-2.0278	-9.171266	0.000525	5.252094	1.779457	0.041944
1952	9.7550e-01	-1.9828	-9.102704	0.000172	1.717031	0.581746	0.013713
1953	9.7600e-01	-1.9267	-9.066406	0.000091	0.909016	0.307983	0.007260
1954	9.7650e-01	-1.9058	-8.941380	0.000313	3.131056	1.060830	0.025005
1955	9.7700e-01	-1.8641	-8.913148	0.000071	0.707013	0.239542	0.005646
1956	9.7750e-01	-1.8240	-8.735692	0.000444	4.444079	1.505695	0.035491
1957	9.7800e-01	-1.7823	-8.642930	0.000232	2.323041	0.787068	0.018552
1958	9.7850e-01	-1.7422	-8.449342	0.000485	4.848086	1.642576	0.038718
1959	9.7900e-01	-1.7037	-8.384812	0.000162	1.616029	0.547525	0.012906
1960	9.7950e-01	-1.6604	-8.348514	0.000091	0.909016	0.307983	0.007260
1961	9.8000e-01	-1.6235	-8.154925	0.000485	4.848086	1.642576	0.038718
1962	9.8050e-01	-1.5818	-8.171058	-0.000040	-0.404007	-0.136881	-0.003226
1963	9.8100e-01	-1.5401	-8.050065	0.000303	3.030054	1.026610	0.024199
1964	9.8150e-01	-1.5096	-7.949237	0.000253	2.525045	0.855508	0.020165
1965	9.8200e-01	-1.4695	-7.723384	0.000566	5.656101	1.916339	0.045171
1966	9.8250e-01	-1.4262	-7.618523	0.000263	2.626047	0.889729	0.020972
1967	9.8300e-01	-1.3812	-7.578192	0.000101	1.010018	0.342203	0.008066
1968	9.8350e-01	-1.3283	-7.553994	0.000061	0.606011	0.205322	0.004840
1969	9.8400e-01	-1.3123	-7.453166	0.000253	2.525045	0.855508	0.020165
1970	9.8450e-01	-1.2625	-7.303942	0.000374	3.737067	1.266152	0.029845
1971	9.8500e-01	-1.2176	-7.122452	0.000455	4.545081	1.539915	0.036298
1972	9.8550e-01	-1.1839	-7.033724	0.000222	2.222040	0.752847	0.017746
1973	9.8600e-01	-1.1502	-6.969194	0.000162	1.616029	0.547525	0.012906
1974	9.8650e-01	-1.1085	-6.707043	0.000657	6.565117	2.224322	0.052430
1975	9.8700e-01	-1.0636	-6.686877	0.000051	0.505009	0.171102	0.004033
1976	9.8750e-01	-1.0235	-6.509421	0.000444	4.444079	1.505695	0.035491
1977	9.8800e-01	-0.9802	-6.505388	0.000010	0.101002	0.034220	0.000807
1978	9.8850e-01	-0.9481	-6.352130	0.000384	3.838068	1.300373	0.030652
1979	9.8900e-01	-0.9096	-6.235170	0.000293	2.929052	0.992390	0.023392
1980	9.8950e-01	-0.8647	-6.182740	0.000131	1.313023	0.444864	0.010486
1981	9.9000e-01	-0.8230	-6.041582	0.000354	3.535063	1.197712	0.028232
1982	9.9050e-01	-0.7764	-6.021416	0.000051	0.505009	0.171102	0.004033
1983	9.9100e-01	-0.7412	-5.819761	0.000505	5.050090	1.711017	0.040331
1984	9.9150e-01	-0.6978	-5.630206	0.000475	4.747085	1.608356	0.037911
1985	9.9200e-01	-0.6658	-5.682636	-0.000131	-1.313023	-0.444864	-0.010486
1986	9.9250e-01	-0.6224	-5.521312	0.000404	4.040072	1.368813	0.032265
1987	9.9300e-01	-0.5888	-5.460816	0.000152	1.515027	0.513305	0.012099
1988	9.9350e-01	-0.5486	-5.380154	0.000202	2.020036	0.684407	0.016132
1989	9.9400e-01	-0.4941	-5.287392	0.000232	2.323041	0.787068	0.018552
1990	9.9450e-01	-0.4684	-5.170432	0.000293	2.929052	0.992390	0.023392
1991	9.9500e-01	-0.4123	-5.001042	0.000424	4.242076	1.437254	0.033878
1992	9.9550e-01	-0.3834	-4.867950	0.000333	3.333059	1.129271	0.026618
1993	9.9600e-01	-0.3401	-4.811487	0.000141	1.414025	0.479085	0.011293
1994	9.9650e-01	-0.2984	-4.609832	0.000505	5.050090	1.711017	0.040331
1995	9.9700e-01	-0.2647	-4.480773	0.000323	3.232058	1.095051	0.025812
1996	9.9750e-01	-0.2262	-4.359780	0.000303	3.030054	1.026610	0.024199
1997	9.9800e-01	-0.1877	-4.323482	0.000091	0.909016	0.307983	0.007260
1998	9.9850e-01	-0.1348	-4.222654	0.000253	2.525045	0.855508	0.020165
1999	9.9900e-01	-0.1043	-4.275085	-0.000131	-1.313023	-0.444864	-0.010486
2000	9.9950e-01	-0.0674	-3.984701	0.000727	7.272129	2.463864	0.058077
2001	1.0000e+00	-0.0128	-3.936304	0.000727	7.272129	2.463864	0.009679

Center data before PMax,+/-Pr and +/-Vc Calc.

PMax (uC/cm2):	5.09e+01
Pr (uC/cm2):	-1.18e+00
-Pr (uC/cm2):	-3.94e+00
PLoss (uC/cm2):	-1.19e+00
Vc:	9.84e-01
-Vc:	4.43e-01
C (Max-Eff) (nF):	2.55e-01
K (Eff):	8.64e+02
Vert. (+/-Pr) Shift (uC/cm2):	-2.56e+00
Horiz. Shift (+/-Vc):	7.13e-01
Offset (uC/cm2):	2.62e+00

A (Loop Area - uC/cm2·Volts):	-5.96e-02



Hysteresis Version: 5.48.1 - Radiant Technologies, Inc., 1999 - 9/12/24

