»»»»»»»»»»»»»»»»»»»»»»»»»»»»»»»»»»»» Hysteresis ««««««««««««««««««««««««««««««««««««
»»»  Executed Version:	5.48.1
»»»  Vision Version:	5.48.4 (R)
»»»  Vision Compiled:	9/18/24
»»»  Driver Version:	5.47.0
»»»  Windows Version:	Windows 8 or 8.1
»»»  Processor Information:	x86 (AMD or Intel) - 32 Processors
»»»  Tester Name:	PMF21124-494 (100V)
»»»  Tester S/N:	PMF21124-494
»»»  Internal Amp Type:	100V RevK 270k
»»»  Internal Amp S/N:	iAB2-596/K     
»»»  Execution Count:	1
»»»»»»»»»»»»»»»»»»»»»»»»»»»»»»»»»»»»»»»»»»««««««««««««««««««««««««««««««««««««««««««

Stored:	6/19/2025 - 19:40:49
Configured:	06/19/25 10:04:32 AM
Executed:	06/19/25 07:40:26 PM

»»»»»»»»»»»»»»»»»»»»»»»»»»»»»»»»»»» Sample Info ««««««««««««««««««««««««««««««««««««
Sample Name:	
Lot Name:	
Wafer Name:	
Die Row/Column:	0/0
Capacitor Number:	0
Sample Area (cm2):	1.00e-04
Sample Thickness (microns):	3.00e-01

Amplifier:	Internal

»»»»»»»»»»»»»»»»»»»»»»»»»»»»»»»»»»» Tester Info «««««««««««««««««««««««««««««««««««
Tester Name:	PMF21124-494 (100V)
Tester Serial Number:	PMF21124-494
Return Signal Amp. Level:	0.19 [Index: 3]

»»»»»»»»»»»»»»»»»»»»»»»»»»»»»»»» Hysteresis Info ««««««««««««««««««««««««««««««««««
Task Name:	Hyst-1168
Volts:	20.00
Field:	666.67 (kV/cm)
DCBias:	0.00
DCField:	0.00 (kV/cm)
Hysteresis Period (ms):	1.00e+00
Preset:	Enabled
Preset Delay (ms):	1.00e+03
Profile:	Standard Bipolar

»»»»»»»»»»»»»»»»»»»»»»»»»»»»»»»»»»»»»» Data «««««««««««««««««««««««««««««««««««««««
Points:	2001

Valid Data

Point	Time (ms)	Drive Voltage	Measured Polarization (uC/cm2)	Capacitance (uF)	Normalized Capacitance (uF/cm2)	Dielectric Constant	Instantaneous Current (mA)
   1	0.0000e+00	0.0176	-5.515262	0.000778	7.778093	2.635289	0.062110
   2	5.0000e-04	0.0433	-5.204714	0.000778	7.778093	2.635289	0.062110
   3	1.0000e-03	0.0545	-5.241012	-0.000091	-0.909128	-0.308021	-0.007260
   4	1.5000e-03	0.0995	-5.281343	-0.000101	-1.010142	-0.342245	-0.008066
   5	2.0000e-03	0.1332	-4.938529	0.000859	8.586207	2.909086	0.068563
   6	2.5000e-03	0.1700	-4.623948	0.000788	7.879108	2.669514	0.062916
   7	3.0000e-03	0.2102	-4.853834	-0.000576	-5.757809	-1.950799	-0.045977
   8	3.5000e-03	0.2599	-4.567484	0.000717	7.172008	2.429942	0.057270
   9	4.0000e-03	0.2936	-4.498921	0.000172	1.717241	0.581817	0.013713
  10	4.5000e-03	0.3401	-4.619914	-0.000303	-3.030426	-1.026736	-0.024199
  11	5.0000e-03	0.3802	-4.265002	0.000889	8.889250	3.011759	0.070983
  12	5.5000e-03	0.4123	-4.176274	0.000222	2.222312	0.752940	0.017746
  13	6.0000e-03	0.4524	-3.841526	0.000838	8.384179	2.840637	0.066949
  14	6.5000e-03	0.4909	-3.607607	0.000586	5.858824	1.985023	0.046784
  15	7.0000e-03	0.5294	-3.760864	-0.000384	-3.838540	-1.300532	-0.030652
  16	7.5000e-03	0.5775	-3.426117	0.000838	8.384179	2.840637	0.066949
  17	8.0000e-03	0.6208	-3.293025	0.000333	3.333469	1.129410	0.026618
  18	8.5000e-03	0.6497	-3.135734	0.000394	3.939554	1.334757	0.031458
  19	9.0000e-03	0.6914	-2.942145	0.000485	4.848682	1.642778	0.038718
  20	9.5000e-03	0.7267	-2.869550	0.000182	1.818256	0.616042	0.014519
  21	1.0000e-02	0.7684	-2.881649	-0.000030	-0.303043	-0.102674	-0.002420
  22	1.0500e-02	0.8150	-2.591266	0.000727	7.273022	2.464167	0.058077
  23	1.1000e-02	0.8583	-2.659829	-0.000172	-1.717241	-0.581817	-0.013713
  24	1.1500e-02	0.9016	-2.486405	0.000434	4.343611	1.471655	0.034685
  25	1.2000e-02	0.9305	-2.248452	0.000596	5.959838	2.019248	0.047591
  26	1.2500e-02	0.9674	-2.220221	0.000071	0.707099	0.239572	0.005646
  27	1.3000e-02	1.0187	-2.175857	0.000111	1.111156	0.376470	0.008873
  28	1.3500e-02	1.0572	-1.925805	0.000626	6.262880	2.121921	0.050010
  29	1.4000e-02	1.0989	-1.893540	0.000081	0.808114	0.273796	0.006453
  30	1.4500e-02	1.1278	-1.461998	0.001081	10.808519	3.662026	0.086308
  31	1.5000e-02	1.1791	-1.562826	-0.000253	-2.525355	-0.855613	-0.020165
  32	1.5500e-02	1.2224	-1.417634	0.000364	3.636511	1.232083	0.029038
  33	1.6000e-02	1.2625	-1.183714	0.000586	5.858824	1.985023	0.046784
  34	1.6500e-02	1.2962	-0.986093	0.000495	4.949696	1.677002	0.039524
  35	1.7000e-02	1.3411	-0.780405	0.000515	5.151724	1.745451	0.041138
  36	1.7500e-02	1.3716	-0.748140	0.000081	0.808114	0.273796	0.006453
  37	1.8000e-02	1.4181	-0.405326	0.000859	8.586207	2.909086	0.068563
  38	1.8500e-02	1.4550	-0.223837	0.000455	4.545639	1.540104	0.036298
  39	1.9000e-02	1.5000	-0.215771	0.000020	0.202028	0.068449	0.001613
  40	1.9500e-02	1.5336	0.054447	0.000677	6.767951	2.293044	0.054044
  41	2.0000e-02	1.5738	0.062513	0.000020	0.202028	0.068449	0.001613
  42	2.0500e-02	1.6155	0.167374	0.000263	2.626369	0.889838	0.020972
  43	2.1000e-02	1.6588	0.373062	0.000515	5.151724	1.745451	0.041138
  44	2.1500e-02	1.6941	0.441624	0.000172	1.717241	0.581817	0.013713
  45	2.2000e-02	1.7406	0.594882	0.000384	3.838540	1.300532	0.030652
  46	2.2500e-02	1.7711	0.848967	0.000636	6.363895	2.156146	0.050817
  47	2.3000e-02	1.8160	0.873166	0.000061	0.606085	0.205347	0.004840
  48	2.3500e-02	1.8641	0.978026	0.000263	2.626369	0.889838	0.020972
  49	2.4000e-02	1.8914	0.917530	-0.000152	-1.515213	-0.513368	-0.012099
  50	2.4500e-02	1.9331	1.316807	0.001000	10.000406	3.388229	0.079855
  51	2.5000e-02	1.9780	1.526528	0.000525	5.252738	1.779676	0.041944
  52	2.5500e-02	2.0133	1.752381	0.000566	5.656795	1.916574	0.045171
  53	2.6000e-02	2.0614	1.744315	-0.000020	-0.202028	-0.068449	-0.001613
  54	2.6500e-02	2.0967	1.937904	0.000485	4.848682	1.642778	0.038718
  55	2.7000e-02	2.1465	2.248452	0.000778	7.778093	2.635289	0.062110
  56	2.7500e-02	2.1737	2.329114	0.000202	2.020284	0.684491	0.016132
  57	2.8000e-02	2.2203	2.385578	0.000141	1.414199	0.479144	0.011293
  58	2.8500e-02	2.2620	2.482372	0.000242	2.424341	0.821389	0.019359
  59	2.9000e-02	2.2924	2.546902	0.000162	1.616227	0.547593	0.012906
  60	2.9500e-02	2.3310	2.675961	0.000323	3.232454	1.095185	0.025812
  61	3.0000e-02	2.3662	3.091370	0.001040	10.404463	3.525127	0.083082
  62	3.0500e-02	2.4144	3.232529	0.000354	3.535497	1.197859	0.028232
  63	3.1000e-02	2.4609	3.389819	0.000394	3.939554	1.334757	0.031458
  64	3.1500e-02	2.4994	3.462415	0.000182	1.818256	0.616042	0.014519
  65	3.2000e-02	2.5347	3.341422	-0.000303	-3.030426	-1.026736	-0.024199
  66	3.2500e-02	2.5748	3.494680	0.000384	3.838540	1.300532	0.030652
  67	3.3000e-02	2.6101	3.962519	0.001172	11.717647	3.970046	0.093568
  68	3.3500e-02	2.6550	4.079479	0.000293	2.929412	0.992512	0.023392
  69	3.4000e-02	2.6999	3.990751	-0.000222	-2.222312	-0.752940	-0.017746
  70	3.4500e-02	2.7272	4.406160	0.001040	10.404463	3.525127	0.083082
  71	3.5000e-02	2.7866	4.470690	0.000162	1.616227	0.547593	0.012906
  72	3.5500e-02	2.8154	4.656212	0.000465	4.646653	1.574329	0.037105
  73	3.6000e-02	2.8620	4.531186	-0.000313	-3.131440	-1.060961	-0.025005
  74	3.6500e-02	2.9005	4.793338	0.000657	6.565923	2.224595	0.052430
  75	3.7000e-02	2.9309	4.874000	0.000202	2.020284	0.684491	0.016132
  76	3.7500e-02	2.9759	5.325707	0.001131	11.313590	3.833148	0.090341
  77	3.8000e-02	3.0127	5.301508	-0.000061	-0.606085	-0.205347	-0.004840
  78	3.8500e-02	3.0529	5.374104	0.000182	1.818256	0.616042	0.014519
  79	3.9000e-02	3.0914	5.644321	0.000677	6.767951	2.293044	0.054044
  80	3.9500e-02	3.1379	5.789513	0.000364	3.636511	1.232083	0.029038
  81	4.0000e-02	3.1780	5.724983	-0.000162	-1.616227	-0.547593	-0.012906
  82	4.0500e-02	3.2133	5.987135	0.000657	6.565923	2.224595	0.052430
  83	4.1000e-02	3.2614	6.338014	0.000879	8.788235	2.977535	0.070176
  84	4.1500e-02	3.2999	6.338014	0.000000	0.000000	0.000000	0.000000
  85	4.2000e-02	3.3352	6.527570	0.000475	4.747667	1.608553	0.037911
  86	4.2500e-02	3.3801	6.515471	-0.000030	-0.303043	-0.102674	-0.002420
  87	4.3000e-02	3.4122	7.140601	0.001566	15.657201	5.304803	0.125026
  88	4.3500e-02	3.4523	7.112369	-0.000071	-0.707099	-0.239572	-0.005646
  89	4.4000e-02	3.4956	7.100270	-0.000030	-0.303043	-0.102674	-0.002420
  90	4.4500e-02	3.5277	7.269660	0.000424	4.242596	1.437431	0.033878
  91	4.5000e-02	3.5774	7.410819	0.000354	3.535497	1.197859	0.028232
  92	4.5500e-02	3.6191	7.576176	0.000414	4.141582	1.403206	0.033071
  93	4.6000e-02	3.6496	7.761698	0.000465	4.646653	1.574329	0.037105
  94	4.6500e-02	3.6962	7.785897	0.000061	0.606085	0.205347	0.004840
  95	4.7000e-02	3.7427	7.979486	0.000485	4.848682	1.642778	0.038718
  96	4.7500e-02	3.7780	8.092412	0.000283	2.828398	0.958287	0.022585
  97	4.8000e-02	3.8149	8.286001	0.000485	4.848682	1.642778	0.038718
  98	4.8500e-02	3.8534	8.201306	-0.000212	-2.121298	-0.718715	-0.016939
  99	4.9000e-02	3.8999	8.572351	0.000929	9.293306	3.148657	0.074209
 100	4.9500e-02	3.9352	8.705443	0.000333	3.333469	1.129410	0.026618
 101	5.0000e-02	3.9705	8.862734	0.000394	3.939554	1.334757	0.031458
 102	5.0500e-02	4.0218	9.048257	0.000465	4.646653	1.574329	0.037105
 103	5.1000e-02	4.0539	9.189415	0.000354	3.535497	1.197859	0.028232
 104	5.1500e-02	4.1052	9.342673	0.000384	3.838540	1.300532	0.030652
 105	5.2000e-02	4.1405	9.427368	0.000212	2.121298	0.718715	0.016939
 106	5.2500e-02	4.1806	9.532229	0.000263	2.626369	0.889838	0.020972
 107	5.3000e-02	4.2143	9.798413	0.000667	6.666937	2.258819	0.053237
 108	5.3500e-02	4.2608	9.911340	0.000283	2.828398	0.958287	0.022585
 109	5.4000e-02	4.2977	10.024267	0.000283	2.828398	0.958287	0.022585
 110	5.4500e-02	4.3346	10.217855	0.000485	4.848682	1.642778	0.038718
 111	5.5000e-02	4.3731	10.258186	0.000101	1.010142	0.342245	0.008066
 112	5.5500e-02	4.4165	10.258186	0.000000	0.000000	0.000000	0.000000
 113	5.6000e-02	4.4469	10.601000	0.000859	8.586207	2.909086	0.068563
 114	5.6500e-02	4.4999	10.681662	0.000202	2.020284	0.684491	0.016132
 115	5.7000e-02	4.5320	11.028508	0.000869	8.687221	2.943310	0.069369
 116	5.7500e-02	4.5673	11.129336	0.000253	2.525355	0.855613	0.020165
 117	5.8000e-02	4.6186	11.097071	-0.000081	-0.808114	-0.273796	-0.006453
 118	5.8500e-02	4.6603	11.173700	0.000192	1.919270	0.650266	0.015326
 119	5.9000e-02	4.6988	11.480215	0.000768	7.677079	2.601065	0.061303
 120	5.9500e-02	4.7341	11.657672	0.000444	4.444625	1.505880	0.035491
 121	6.0000e-02	4.7790	11.766565	0.000273	2.727383	0.924063	0.021779
 122	6.0500e-02	4.8191	11.980319	0.000535	5.353753	1.813900	0.042751
 123	6.1000e-02	4.8576	12.226338	0.000616	6.161866	2.087697	0.049204
 124	6.1500e-02	4.8945	12.222305	-0.000010	-0.101014	-0.034225	-0.000807
 125	6.2000e-02	4.9314	12.399762	0.000444	4.444625	1.505880	0.035491
 126	6.2500e-02	4.9699	12.548986	0.000374	3.737525	1.266308	0.029845
 127	6.3000e-02	5.0164	12.770807	0.000556	5.555781	1.882350	0.044364
 128	6.3500e-02	5.0517	12.847436	0.000192	1.919270	0.650266	0.015326
 129	6.4000e-02	5.0870	13.081355	0.000586	5.858824	1.985023	0.046784
 130	6.4500e-02	5.1368	13.016826	-0.000162	-1.616227	-0.547593	-0.012906
 131	6.5000e-02	5.1785	13.274944	0.000646	6.464909	2.190370	0.051624
 132	6.5500e-02	5.2170	13.658088	0.000960	9.596349	3.251331	0.076629
 133	6.6000e-02	5.2523	13.920240	0.000657	6.565923	2.224595	0.052430
 134	6.6500e-02	5.2956	13.855710	-0.000162	-1.616227	-0.547593	-0.012906
 135	6.7000e-02	5.3357	14.186424	0.000828	8.283164	2.806412	0.066143
 136	6.7500e-02	5.3822	14.113829	-0.000182	-1.818256	-0.616042	-0.014519
 137	6.8000e-02	5.4207	14.162226	0.000121	1.212170	0.410694	0.009679
 138	6.8500e-02	5.4528	14.323550	0.000404	4.040568	1.368982	0.032265
 139	6.9000e-02	5.4945	14.505039	0.000455	4.545639	1.540104	0.036298
 140	6.9500e-02	5.5394	14.650231	0.000364	3.636511	1.232083	0.029038
 141	7.0000e-02	5.5827	14.908349	0.000646	6.464909	2.190370	0.051624
 142	7.0500e-02	5.6116	15.202765	0.000737	7.374037	2.498391	0.058883
 143	7.1000e-02	5.6581	15.093872	-0.000273	-2.727383	-0.924063	-0.021779
 144	7.1500e-02	5.6966	15.581876	0.001222	12.222718	4.141169	0.097601
 145	7.2000e-02	5.7335	15.622207	0.000101	1.010142	0.342245	0.008066
 146	7.2500e-02	5.7752	15.981153	0.000899	8.990264	3.045984	0.071789
 147	7.3000e-02	5.8137	15.932756	-0.000121	-1.212170	-0.410694	-0.009679
 148	7.3500e-02	5.8490	16.138444	0.000515	5.151724	1.745451	0.041138
 149	7.4000e-02	5.9036	16.493357	0.000889	8.889250	3.011759	0.070983
 150	7.4500e-02	5.9389	16.319933	-0.000434	-4.343611	-1.471655	-0.034685
 151	7.5000e-02	5.9742	16.412695	0.000232	2.323327	0.787164	0.018552
 152	7.5500e-02	6.0239	16.509489	0.000242	2.424341	0.821389	0.019359
 153	7.6000e-02	6.0544	16.763574	0.000636	6.363895	2.156146	0.050817
 154	7.6500e-02	6.0881	16.703078	-0.000152	-1.515213	-0.513368	-0.012099
 155	7.7000e-02	6.1378	16.981362	0.000697	6.969980	2.361493	0.055657
 156	7.7500e-02	6.1699	17.215281	0.000586	5.858824	1.985023	0.046784
 157	7.8000e-02	6.2196	17.299976	0.000212	2.121298	0.718715	0.016939
 158	7.8500e-02	6.2549	17.610525	0.000778	7.778093	2.635289	0.062110
 159	7.9000e-02	6.2886	17.783948	0.000434	4.343611	1.471655	0.034685
 160	7.9500e-02	6.3415	17.904941	0.000303	3.030426	1.026736	0.024199
 161	8.0000e-02	6.3752	18.034000	0.000323	3.232454	1.095185	0.025812
 162	8.0500e-02	6.4025	18.159026	0.000313	3.131440	1.060961	0.025005
 163	8.1000e-02	6.4554	18.667197	0.001273	12.727789	4.312292	0.101634
 164	8.1500e-02	6.5004	18.707528	0.000101	1.010142	0.342245	0.008066
 165	8.2000e-02	6.5324	18.513939	-0.000485	-4.848682	-1.642778	-0.038718
 166	8.2500e-02	6.5661	18.683329	0.000424	4.242596	1.437431	0.033878
 167	8.3000e-02	6.6126	18.856753	0.000434	4.343611	1.471655	0.034685
 168	8.3500e-02	6.6528	19.014043	0.000394	3.939554	1.334757	0.031458
 169	8.4000e-02	6.6929	19.288294	0.000687	6.868966	2.327269	0.054850
 170	8.4500e-02	6.7282	19.235864	-0.000131	-1.313185	-0.444919	-0.010486
 171	8.5000e-02	6.7747	19.506081	0.000677	6.767951	2.293044	0.054044
 172	8.5500e-02	6.8164	19.514148	0.000020	0.202028	0.068449	0.001613
 173	8.6000e-02	6.8549	19.711769	0.000495	4.949696	1.677002	0.039524
 174	8.6500e-02	6.8886	19.949722	0.000596	5.959838	2.019248	0.047591
 175	8.7000e-02	6.9431	20.022318	0.000182	1.818256	0.616042	0.014519
 176	8.7500e-02	6.9656	20.474025	0.001131	11.313590	3.833148	0.090341
 177	8.8000e-02	7.0153	20.558720	0.000212	2.121298	0.718715	0.016939
 178	8.8500e-02	7.0522	20.768441	0.000525	5.252738	1.779676	0.041944
 179	8.9000e-02	7.0875	20.909600	0.000354	3.535497	1.197859	0.028232
 180	8.9500e-02	7.1372	20.885401	-0.000061	-0.606085	-0.205347	-0.004840
 181	9.0000e-02	7.1709	21.083023	0.000495	4.949696	1.677002	0.039524
 182	9.0500e-02	7.2094	21.280645	0.000495	4.949696	1.677002	0.039524
 183	9.1000e-02	7.2608	21.522631	0.000606	6.060852	2.053472	0.048397
 184	9.1500e-02	7.2912	21.405671	-0.000293	-2.929412	-0.992512	-0.023392
 185	9.2000e-02	7.3297	21.780749	0.000939	9.394321	3.182882	0.075016
 186	9.2500e-02	7.3763	21.534730	-0.000616	-6.161866	-2.087697	-0.049204
 187	9.3000e-02	7.4116	21.813014	0.000697	6.969980	2.361493	0.055657
 188	9.3500e-02	7.4533	22.087264	0.000687	6.868966	2.327269	0.054850
 189	9.4000e-02	7.4886	22.494607	0.001020	10.202434	3.456678	0.081469
 190	9.4500e-02	7.5287	22.329250	-0.000414	-4.141582	-1.403206	-0.033071
 191	9.5000e-02	7.5832	22.494607	0.000414	4.141582	1.403206	0.033071
 192	9.5500e-02	7.6169	22.720461	0.000566	5.656795	1.916574	0.045171
 193	9.6000e-02	7.6538	22.744660	0.000061	0.606085	0.205347	0.004840
 194	9.6500e-02	7.6923	22.990679	0.000616	6.161866	2.087697	0.049204
 195	9.7000e-02	7.7340	23.103605	0.000283	2.828398	0.958287	0.022585
 196	9.7500e-02	7.7837	23.506915	0.001010	10.101420	3.422454	0.080662
 197	9.8000e-02	7.8142	23.744868	0.000596	5.959838	2.019248	0.047591
 198	9.8500e-02	7.8575	23.773100	0.000071	0.707099	0.239572	0.005646
 199	9.9000e-02	7.8848	23.845695	0.000182	1.818256	0.616042	0.014519
 200	9.9500e-02	7.9297	23.966688	0.000303	3.030426	1.026736	0.024199
 201	1.0000e-01	7.9730	23.886026	-0.000202	-2.020284	-0.684491	-0.016132
 202	1.0050e-01	8.0067	24.257072	0.000929	9.293306	3.148657	0.074209
 203	1.0100e-01	8.0565	24.410329	0.000384	3.838540	1.300532	0.030652
 204	1.0150e-01	8.0966	24.559554	0.000374	3.737525	1.266308	0.029845
 205	1.0200e-01	8.1286	24.789441	0.000576	5.757809	1.950799	0.045977
 206	1.0250e-01	8.1704	24.970930	0.000455	4.545639	1.540104	0.036298
 207	1.0300e-01	8.2105	25.079824	0.000273	2.727383	0.924063	0.021779
 208	1.0350e-01	8.2650	24.958831	-0.000303	-3.030426	-1.026736	-0.024199
 209	1.0400e-01	8.2955	25.204850	0.000616	6.161866	2.087697	0.049204
 210	1.0450e-01	8.3356	25.575895	0.000929	9.293306	3.148657	0.074209
 211	1.0500e-01	8.3773	25.583961	0.000020	0.202028	0.068449	0.001613
 212	1.0550e-01	8.4238	25.757384	0.000434	4.343611	1.471655	0.034685
 213	1.0600e-01	8.4575	25.850145	0.000232	2.323327	0.787164	0.018552
 214	1.0650e-01	8.5024	26.084065	0.000586	5.858824	1.985023	0.046784
 215	1.0700e-01	8.5329	26.354283	0.000677	6.767951	2.293044	0.054044
 216	1.0750e-01	8.5746	26.761626	0.001020	10.202434	3.456678	0.081469
 217	1.0800e-01	8.6099	26.559971	-0.000505	-5.050710	-1.711227	-0.040331
 218	1.0850e-01	8.6580	26.781791	0.000556	5.555781	1.882350	0.044364
 219	1.0900e-01	8.6998	26.947148	0.000414	4.141582	1.403206	0.033071
 220	1.0950e-01	8.7318	26.931016	-0.000040	-0.404057	-0.136898	-0.003226
 221	1.1000e-01	8.7752	26.963281	0.000081	0.808114	0.273796	0.006453
 222	1.1050e-01	8.8104	27.241565	0.000697	6.969980	2.361493	0.055657
 223	1.1100e-01	8.8554	27.467418	0.000566	5.656795	1.916574	0.045171
 224	1.1150e-01	8.8923	27.782000	0.000788	7.879108	2.669514	0.062916
 225	1.1200e-01	8.9388	27.898960	0.000293	2.929412	0.992512	0.023392
 226	1.1250e-01	8.9741	27.951390	0.000131	1.313185	0.444919	0.010486
 227	1.1300e-01	9.0238	27.902993	-0.000121	-1.212170	-0.410694	-0.009679
 228	1.1350e-01	9.0575	27.939291	0.000091	0.909128	0.308021	0.007260
 229	1.1400e-01	9.0928	28.350667	0.001030	10.303448	3.490903	0.082275
 230	1.1450e-01	9.1281	28.499891	0.000374	3.737525	1.266308	0.029845
 231	1.1500e-01	9.1746	28.915300	0.001040	10.404463	3.525127	0.083082
 232	1.1550e-01	9.2147	28.786241	-0.000323	-3.232454	-1.095185	-0.025812
 233	1.1600e-01	9.2612	29.076624	0.000727	7.273022	2.464167	0.058077
 234	1.1650e-01	9.2949	29.068558	-0.000020	-0.202028	-0.068449	-0.001613
 235	1.1700e-01	9.3398	29.149220	0.000202	2.020284	0.684491	0.016132
 236	1.1750e-01	9.3832	29.258114	0.000273	2.727383	0.924063	0.021779
 237	1.1800e-01	9.4136	29.617060	0.000899	8.990264	3.045984	0.071789
 238	1.1850e-01	9.4602	29.867112	0.000626	6.262880	2.121921	0.050010
 239	1.1900e-01	9.4955	30.024403	0.000394	3.939554	1.334757	0.031458
 240	1.1950e-01	9.5324	30.024403	0.000000	0.000000	0.000000	0.000000
 241	1.2000e-01	9.5773	30.286554	0.000657	6.565923	2.224595	0.052430
 242	1.2050e-01	9.6174	30.213958	-0.000182	-1.818256	-0.616042	-0.014519
 243	1.2100e-01	9.6703	30.431746	0.000545	5.454767	1.848125	0.043557
 244	1.2150e-01	9.7008	30.766493	0.000838	8.384179	2.840637	0.066949
 245	1.2200e-01	9.7345	30.802791	0.000091	0.909128	0.308021	0.007260
 246	1.2250e-01	9.7714	30.996379	0.000485	4.848682	1.642778	0.038718
 247	1.2300e-01	9.8131	31.173836	0.000444	4.444625	1.505880	0.035491
 248	1.2350e-01	9.8500	31.125438	-0.000121	-1.212170	-0.410694	-0.009679
 249	1.2400e-01	9.8917	31.359358	0.000586	5.858824	1.985023	0.046784
 250	1.2450e-01	9.9286	31.645708	0.000717	7.172008	2.429942	0.057270
 251	1.2500e-01	9.9751	31.762668	0.000293	2.929412	0.992512	0.023392
 252	1.2550e-01	10.0200	31.915926	0.000384	3.838540	1.300532	0.030652
 253	1.2600e-01	10.0634	32.061117	0.000364	3.636511	1.232083	0.029038
 254	1.2650e-01	10.0858	32.097415	0.000091	0.909128	0.308021	0.007260
 255	1.2700e-01	10.1259	32.234541	0.000343	3.434483	1.163634	0.027425
 256	1.2750e-01	10.1692	32.508791	0.000687	6.868966	2.327269	0.054850
 257	1.2800e-01	10.2158	32.710446	0.000505	5.050710	1.711227	0.040331
 258	1.2850e-01	10.2510	32.795141	0.000212	2.121298	0.718715	0.016939
 259	1.2900e-01	10.2976	32.920167	0.000313	3.131440	1.060961	0.025005
 260	1.2950e-01	10.3393	33.117789	0.000495	4.949696	1.677002	0.039524
 261	1.3000e-01	10.3778	33.061326	-0.000141	-1.414199	-0.479144	-0.011293
 262	1.3050e-01	10.4131	33.335576	0.000687	6.868966	2.327269	0.054850
 263	1.3100e-01	10.4516	33.484801	0.000374	3.737525	1.266308	0.029845
 264	1.3150e-01	10.4933	33.871979	0.000970	9.697363	3.285556	0.077435
 265	1.3200e-01	10.5318	33.859879	-0.000030	-0.303043	-0.102674	-0.002420
 266	1.3250e-01	10.5703	33.896177	0.000091	0.909128	0.308021	0.007260
 267	1.3300e-01	10.6168	34.299487	0.001010	10.101420	3.422454	0.080662
 268	1.3350e-01	10.6585	34.271255	-0.000071	-0.707099	-0.239572	-0.005646
 269	1.3400e-01	10.6954	34.255123	-0.000040	-0.404057	-0.136898	-0.003226
 270	1.3450e-01	10.7452	34.384182	0.000323	3.232454	1.095185	0.025812
 271	1.3500e-01	10.7820	34.597936	0.000535	5.353753	1.813900	0.042751
 272	1.3550e-01	10.8157	34.880253	0.000707	7.070994	2.395718	0.056463
 273	1.3600e-01	10.8558	35.085941	0.000515	5.151724	1.745451	0.041138
 274	1.3650e-01	10.8959	35.295662	0.000525	5.252738	1.779676	0.041944
 275	1.3700e-01	10.9377	35.182736	-0.000283	-2.828398	-0.958287	-0.022585
 276	1.3750e-01	10.9778	35.485218	0.000758	7.576065	2.566840	0.060496
 277	1.3800e-01	11.0115	35.473119	-0.000030	-0.303043	-0.102674	-0.002420
 278	1.3850e-01	11.0644	35.525549	0.000131	1.313185	0.444919	0.010486
 279	1.3900e-01	11.0949	35.864329	0.000849	8.485193	2.874861	0.067756
 280	1.3950e-01	11.1382	36.239407	0.000939	9.394321	3.182882	0.075016
 281	1.4000e-01	11.1815	36.094216	-0.000364	-3.636511	-1.232083	-0.029038
 282	1.4050e-01	11.2168	36.392665	0.000748	7.475051	2.532616	0.059690
 283	1.4100e-01	11.2521	36.590287	0.000495	4.949696	1.677002	0.039524
 284	1.4150e-01	11.2970	36.598353	0.000020	0.202028	0.068449	0.001613
 285	1.4200e-01	11.3435	36.900836	0.000758	7.576065	2.566840	0.060496
 286	1.4250e-01	11.3772	37.029895	0.000323	3.232454	1.095185	0.025812
 287	1.4300e-01	11.4157	37.078292	0.000121	1.212170	0.410694	0.009679
 288	1.4350e-01	11.4574	37.481602	0.001010	10.101420	3.422454	0.080662
 289	1.4400e-01	11.4895	37.199285	-0.000707	-7.070994	-2.395718	-0.056463
 290	1.4450e-01	11.5312	37.594529	0.000990	9.899392	3.354005	0.079049
 291	1.4500e-01	11.5777	37.574363	-0.000051	-0.505071	-0.171123	-0.004033
 292	1.4550e-01	11.6098	37.767952	0.000485	4.848682	1.642778	0.038718
 293	1.4600e-01	11.6548	37.884912	0.000293	2.929412	0.992512	0.023392
 294	1.4650e-01	11.6997	38.038169	0.000384	3.838540	1.300532	0.030652
 295	1.4700e-01	11.7366	38.296288	0.000646	6.464909	2.190370	0.051624
 296	1.4750e-01	11.7783	38.324519	0.000071	0.707099	0.239572	0.005646
 297	1.4800e-01	11.8184	38.574572	0.000626	6.262880	2.121921	0.050010
 298	1.4850e-01	11.8633	38.760094	0.000465	4.646653	1.574329	0.037105
 299	1.4900e-01	11.8970	39.022246	0.000657	6.565923	2.224595	0.052430
 300	1.4950e-01	11.9339	39.284397	0.000657	6.565923	2.224595	0.052430
 301	1.5000e-01	11.9692	39.352960	0.000172	1.717241	0.581817	0.013713
 302	1.5050e-01	12.0109	39.308596	-0.000111	-1.111156	-0.376470	-0.008873
 303	1.5100e-01	12.0622	39.498151	0.000475	4.747667	1.608553	0.037911
 304	1.5150e-01	12.0959	39.724005	0.000566	5.656795	1.916574	0.045171
 305	1.5200e-01	12.1328	39.885329	0.000404	4.040568	1.368982	0.032265
 306	1.5250e-01	12.1681	40.006322	0.000303	3.030426	1.026736	0.024199
 307	1.5300e-01	12.2114	40.191844	0.000465	4.646653	1.574329	0.037105
 308	1.5350e-01	12.2579	40.244274	0.000131	1.313185	0.444919	0.010486
 309	1.5400e-01	12.2980	40.316870	0.000182	1.818256	0.616042	0.014519
 310	1.5450e-01	12.3317	40.458029	0.000354	3.535497	1.197859	0.028232
 311	1.5500e-01	12.3767	40.603220	0.000364	3.636511	1.232083	0.029038
 312	1.5550e-01	12.4087	40.917802	0.000788	7.879108	2.669514	0.062916
 313	1.5600e-01	12.4521	40.966199	0.000121	1.212170	0.410694	0.009679
 314	1.5650e-01	12.5002	41.022662	0.000141	1.414199	0.479144	0.011293
 315	1.5700e-01	12.5387	41.506634	0.001212	12.121704	4.106945	0.096794
 316	1.5750e-01	12.5756	41.494535	-0.000030	-0.303043	-0.102674	-0.002420
 317	1.5800e-01	12.6173	41.268681	-0.000566	-5.656795	-1.916574	-0.045171
 318	1.5850e-01	12.6558	41.692157	0.001061	10.606491	3.593576	0.084695
 319	1.5900e-01	12.7071	41.889779	0.000495	4.949696	1.677002	0.039524
 320	1.5950e-01	12.7376	41.647793	-0.000606	-6.060852	-2.053472	-0.048397
 321	1.6000e-01	12.7713	42.079334	0.001081	10.808519	3.662026	0.086308
 322	1.6050e-01	12.8002	42.466512	0.000970	9.697363	3.285556	0.077435
 323	1.6100e-01	12.8563	42.454412	-0.000030	-0.303043	-0.102674	-0.002420
 324	1.6150e-01	12.8964	42.817391	0.000909	9.091278	3.080208	0.072596
 325	1.6200e-01	12.9349	42.676233	-0.000354	-3.535497	-1.197859	-0.028232
 326	1.6250e-01	12.9766	42.696398	0.000051	0.505071	0.171123	0.004033
 327	1.6300e-01	13.0103	42.885954	0.000475	4.747667	1.608553	0.037911
 328	1.6350e-01	13.0488	43.236834	0.000879	8.788235	2.977535	0.070176
 329	1.6400e-01	13.0921	43.365893	0.000323	3.232454	1.095185	0.025812
 330	1.6450e-01	13.1387	43.539316	0.000434	4.343611	1.471655	0.034685
 331	1.6500e-01	13.1691	43.615945	0.000192	1.919270	0.650266	0.015326
 332	1.6550e-01	13.2141	43.736938	0.000303	3.030426	1.026736	0.024199
 333	1.6600e-01	13.2526	43.918427	0.000455	4.545639	1.540104	0.036298
 334	1.6650e-01	13.2863	43.914394	-0.000010	-0.101014	-0.034225	-0.000807
 335	1.6700e-01	13.3215	44.366101	0.001131	11.313590	3.833148	0.090341
 336	1.6750e-01	13.3761	44.329803	-0.000091	-0.909128	-0.308021	-0.007260
 337	1.6800e-01	13.4066	44.430631	0.000253	2.525355	0.855613	0.020165
 338	1.6850e-01	13.4515	44.575822	0.000364	3.636511	1.232083	0.029038
 339	1.6900e-01	13.4932	44.842007	0.000667	6.666937	2.258819	0.053237
 340	1.6950e-01	13.5301	44.805709	-0.000091	-0.909128	-0.308021	-0.007260
 341	1.7000e-01	13.5702	44.987198	0.000455	4.545639	1.540104	0.036298
 342	1.7050e-01	13.6071	45.180787	0.000485	4.848682	1.642778	0.038718
 343	1.7100e-01	13.6504	45.402608	0.000556	5.555781	1.882350	0.044364
 344	1.7150e-01	13.6985	45.483269	0.000202	2.020284	0.684491	0.016132
 345	1.7200e-01	13.7403	45.729289	0.000616	6.161866	2.087697	0.049204
 346	1.7250e-01	13.7868	45.854315	0.000313	3.131440	1.060961	0.025005
 347	1.7300e-01	13.8076	45.809950	-0.000111	-1.111156	-0.376470	-0.008873
 348	1.7350e-01	13.8477	46.104367	0.000737	7.374037	2.498391	0.058883
 349	1.7400e-01	13.9007	46.128565	0.000061	0.606085	0.205347	0.004840
 350	1.7450e-01	13.9328	46.394750	0.000667	6.666937	2.258819	0.053237
 351	1.7500e-01	13.9729	46.588339	0.000485	4.848682	1.642778	0.038718
 352	1.7550e-01	14.0178	46.640769	0.000131	1.313185	0.444919	0.010486
 353	1.7600e-01	14.0515	46.939218	0.000748	7.475051	2.532616	0.059690
 354	1.7650e-01	14.0804	47.060211	0.000303	3.030426	1.026736	0.024199
 355	1.7700e-01	14.1317	46.834358	-0.000566	-5.656795	-1.916574	-0.045171
 356	1.7750e-01	14.1814	47.286065	0.001131	11.313590	3.833148	0.090341
 357	1.7800e-01	14.2199	47.294131	0.000020	0.202028	0.068449	0.001613
 358	1.7850e-01	14.2568	47.721639	0.001071	10.707505	3.627801	0.085502
 359	1.7900e-01	14.2825	47.733739	0.000030	0.303043	0.102674	0.002420
 360	1.7950e-01	14.3338	47.971691	0.000596	5.959838	2.019248	0.047591
 361	1.8000e-01	14.3675	48.161247	0.000475	4.747667	1.608553	0.037911
 362	1.8050e-01	14.4108	48.241909	0.000202	2.020284	0.684491	0.016132
 363	1.8100e-01	14.4557	48.237876	-0.000010	-0.101014	-0.034225	-0.000807
 364	1.8150e-01	14.4910	48.403233	0.000414	4.141582	1.403206	0.033071
 365	1.8200e-01	14.5343	48.750079	0.000869	8.687221	2.943310	0.069369
 366	1.8250e-01	14.5680	48.979966	0.000576	5.757809	1.950799	0.045977
 367	1.8300e-01	14.6097	48.822675	-0.000394	-3.939554	-1.334757	-0.031458
 368	1.8350e-01	14.6579	49.096926	0.000687	6.868966	2.327269	0.054850
 369	1.8400e-01	14.6932	49.278415	0.000455	4.545639	1.540104	0.036298
 370	1.8450e-01	14.7333	49.189687	-0.000222	-2.222312	-0.752940	-0.017746
 371	1.8500e-01	14.7718	49.177588	-0.000030	-0.303043	-0.102674	-0.002420
 372	1.8550e-01	14.8167	49.399408	0.000556	5.555781	1.882350	0.044364
 373	1.8600e-01	14.8408	49.649460	0.000626	6.262880	2.121921	0.050010
 374	1.8650e-01	14.8873	49.875314	0.000566	5.656795	1.916574	0.045171
 375	1.8700e-01	14.9274	50.056803	0.000455	4.545639	1.540104	0.036298
 376	1.8750e-01	14.9691	50.258458	0.000505	5.050710	1.711227	0.040331
 377	1.8800e-01	15.0060	50.439948	0.000455	4.545639	1.540104	0.036298
 378	1.8850e-01	15.0541	50.335087	-0.000263	-2.626369	-0.889838	-0.020972
 379	1.8900e-01	15.1006	50.407683	0.000182	1.818256	0.616042	0.014519
 380	1.8950e-01	15.1343	50.540775	0.000333	3.333469	1.129410	0.026618
 381	1.9000e-01	15.1696	50.831158	0.000727	7.273022	2.464167	0.058077
 382	1.9050e-01	15.2033	50.919886	0.000222	2.222312	0.752940	0.017746
 383	1.9100e-01	15.2450	51.077177	0.000394	3.939554	1.334757	0.031458
 384	1.9150e-01	15.2980	51.129608	0.000131	1.313185	0.444919	0.010486
 385	1.9200e-01	15.3284	51.214303	0.000212	2.121298	0.718715	0.016939
 386	1.9250e-01	15.3734	51.718440	0.001263	12.626775	4.278067	0.100827
 387	1.9300e-01	15.4119	51.621646	-0.000242	-2.424341	-0.821389	-0.019359
 388	1.9350e-01	15.4584	51.766837	0.000364	3.636511	1.232083	0.029038
 389	1.9400e-01	15.5001	52.016889	0.000626	6.262880	2.121921	0.050010
 390	1.9450e-01	15.5370	52.194346	0.000444	4.444625	1.505880	0.035491
 391	1.9500e-01	15.5723	52.279041	0.000212	2.121298	0.718715	0.016939
 392	1.9550e-01	15.6124	52.339537	0.000152	1.515213	0.513368	0.012099
 393	1.9600e-01	15.6541	52.420199	0.000202	2.020284	0.684491	0.016132
 394	1.9650e-01	15.6926	52.468596	0.000121	1.212170	0.410694	0.009679
 395	1.9700e-01	15.7359	52.819476	0.000879	8.788235	2.977535	0.070176
 396	1.9750e-01	15.7728	53.045329	0.000566	5.656795	1.916574	0.045171
 397	1.9800e-01	15.8161	53.162289	0.000293	2.929412	0.992512	0.023392
 398	1.9850e-01	15.8578	53.053396	-0.000273	-2.727383	-0.924063	-0.021779
 399	1.9900e-01	15.8915	53.323613	0.000677	6.767951	2.293044	0.054044
 400	1.9950e-01	15.9348	53.505103	0.000455	4.545639	1.540104	0.036298
 401	2.0000e-01	15.9733	53.618029	0.000283	2.828398	0.958287	0.022585
 402	2.0050e-01	16.0118	53.981008	0.000909	9.091278	3.080208	0.072596
 403	2.0100e-01	16.0584	54.174597	0.000485	4.848682	1.642778	0.038718
 404	2.0150e-01	16.0953	53.944710	-0.000576	-5.757809	-1.950799	-0.045977
 405	2.0200e-01	16.1306	54.210895	0.000667	6.666937	2.258819	0.053237
 406	2.0250e-01	16.1691	54.485146	0.000687	6.868966	2.327269	0.054850
 407	2.0300e-01	16.2188	54.670668	0.000465	4.646653	1.574329	0.037105
 408	2.0350e-01	16.2461	54.759396	0.000222	2.222312	0.752940	0.017746
 409	2.0400e-01	16.2894	54.868290	0.000273	2.727383	0.924063	0.021779
 410	2.0450e-01	16.3391	55.057846	0.000475	4.747667	1.608553	0.037911
 411	2.0500e-01	16.3696	55.033647	-0.000061	-0.606085	-0.205347	-0.004840
 412	2.0550e-01	16.4257	55.069945	0.000091	0.909128	0.308021	0.007260
 413	2.0600e-01	16.4578	55.271600	0.000505	5.050710	1.711227	0.040331
 414	2.0650e-01	16.4931	55.525685	0.000636	6.363895	2.156146	0.050817
 415	2.0700e-01	16.5412	55.549884	0.000061	0.606085	0.205347	0.004840
 416	2.0750e-01	16.5749	55.723307	0.000434	4.343611	1.471655	0.034685
 417	2.0800e-01	16.6199	55.981425	0.000646	6.464909	2.190370	0.051624
 418	2.0850e-01	16.6503	56.102418	0.000303	3.030426	1.026736	0.024199
 419	2.0900e-01	16.7001	56.183080	0.000202	2.020284	0.684491	0.016132
 420	2.0950e-01	16.7386	56.457331	0.000687	6.868966	2.327269	0.054850
 421	2.1000e-01	16.7755	56.602522	0.000364	3.636511	1.232083	0.029038
 422	2.1050e-01	16.8108	56.711416	0.000273	2.727383	0.924063	0.021779
 423	2.1100e-01	16.8509	56.767879	0.000141	1.414199	0.479144	0.011293
 424	2.1150e-01	16.8942	57.106660	0.000849	8.485193	2.874861	0.067756
 425	2.1200e-01	16.9327	57.034064	-0.000182	-1.818256	-0.616042	-0.014519
 426	2.1250e-01	16.9728	57.134891	0.000253	2.525355	0.855613	0.020165
 427	2.1300e-01	17.0193	57.231686	0.000242	2.424341	0.821389	0.019359
 428	2.1350e-01	17.0514	57.272017	0.000101	1.010142	0.342245	0.008066
 429	2.1400e-01	17.1091	57.651128	0.000950	9.495335	3.217107	0.075822
 430	2.1450e-01	17.1396	57.731790	0.000202	2.020284	0.684491	0.016132
 431	2.1500e-01	17.1781	57.675327	-0.000141	-1.414199	-0.479144	-0.011293
 432	2.1550e-01	17.2086	57.961677	0.000717	7.172008	2.429942	0.057270
 433	2.1600e-01	17.2567	58.304490	0.000859	8.586207	2.909086	0.068563
 434	2.1650e-01	17.3000	58.481946	0.000444	4.444625	1.505880	0.035491
 435	2.1700e-01	17.3321	58.433549	-0.000121	-1.212170	-0.410694	-0.009679
 436	2.1750e-01	17.3642	58.360953	-0.000182	-1.818256	-0.616042	-0.014519
 437	2.1800e-01	17.4236	58.703767	0.000859	8.586207	2.909086	0.068563
 438	2.1850e-01	17.4476	58.840892	0.000343	3.434483	1.163634	0.027425
 439	2.1900e-01	17.5006	58.736031	-0.000263	-2.626369	-0.889838	-0.020972
 440	2.1950e-01	17.5343	59.099010	0.000909	9.091278	3.080208	0.072596
 441	2.2000e-01	17.5728	59.304698	0.000515	5.151724	1.745451	0.041138
 442	2.2050e-01	17.6113	59.357129	0.000131	1.313185	0.444919	0.010486
 443	2.2100e-01	17.6642	59.494254	0.000343	3.434483	1.163634	0.027425
 444	2.2150e-01	17.6947	59.397460	-0.000242	-2.424341	-0.821389	-0.019359
 445	2.2200e-01	17.7348	59.845134	0.001121	11.212576	3.798924	0.089535
 446	2.2250e-01	17.7717	59.909663	0.000162	1.616227	0.547593	0.012906
 447	2.2300e-01	17.8150	60.014524	0.000263	2.626369	0.889838	0.020972
 448	2.2350e-01	17.8567	60.361370	0.000869	8.687221	2.943310	0.069369
 449	2.2400e-01	17.8888	60.308940	-0.000131	-1.313185	-0.444919	-0.010486
 450	2.2450e-01	17.9417	60.317006	0.000020	0.202028	0.068449	0.001613
 451	2.2500e-01	17.9722	60.413801	0.000242	2.424341	0.821389	0.019359
 452	2.2550e-01	18.0236	60.643687	0.000576	5.757809	1.950799	0.045977
 453	2.2600e-01	18.0540	60.679985	0.000091	0.909128	0.308021	0.007260
 454	2.2650e-01	18.0893	60.897772	0.000545	5.454767	1.848125	0.043557
 455	2.2700e-01	18.1359	61.341413	0.001111	11.111562	3.764699	0.088728
 456	2.2750e-01	18.1760	61.458373	0.000293	2.929412	0.992512	0.023392
 457	2.2800e-01	18.2177	61.147824	-0.000778	-7.778093	-2.635289	-0.062110
 458	2.2850e-01	18.2594	61.418042	0.000677	6.767951	2.293044	0.054044
 459	2.2900e-01	18.2883	61.998808	0.001455	14.546045	4.928333	0.116153
 460	2.2950e-01	18.3348	61.732624	-0.000667	-6.666937	-2.258819	-0.053237
 461	2.3000e-01	18.3813	61.696326	-0.000091	-0.909128	-0.308021	-0.007260
 462	2.3050e-01	18.4214	62.240794	0.001364	13.636917	4.620313	0.108894
 463	2.3100e-01	18.4535	62.438416	0.000495	4.949696	1.677002	0.039524
 464	2.3150e-01	18.4984	62.555376	0.000293	2.929412	0.992512	0.023392
 465	2.3200e-01	18.5353	62.454548	-0.000253	-2.525355	-0.855613	-0.020165
 466	2.3250e-01	18.5722	62.757031	0.000758	7.576065	2.566840	0.060496
 467	2.3300e-01	18.6091	63.011116	0.000636	6.363895	2.156146	0.050817
 468	2.3350e-01	18.6604	63.124043	0.000283	2.828398	0.958287	0.022585
 469	2.3400e-01	18.6877	62.942553	-0.000455	-4.545639	-1.540104	-0.036298
 470	2.3450e-01	18.7358	63.192605	0.000626	6.262880	2.121921	0.050010
 471	2.3500e-01	18.7727	63.386194	0.000485	4.848682	1.642778	0.038718
 472	2.3550e-01	18.8193	63.414426	0.000071	0.707099	0.239572	0.005646
 473	2.3600e-01	18.8594	63.777405	0.000909	9.091278	3.080208	0.072596
 474	2.3650e-01	18.8930	63.938729	0.000404	4.040568	1.368982	0.032265
 475	2.3700e-01	18.9348	63.793537	-0.000364	-3.636511	-1.232083	-0.029038
 476	2.3750e-01	18.9636	64.051655	0.000646	6.464909	2.190370	0.051624
 477	2.3800e-01	19.0118	64.043589	-0.000020	-0.202028	-0.068449	-0.001613
 478	2.3850e-01	19.0535	64.338005	0.000737	7.374037	2.498391	0.058883
 479	2.3900e-01	19.1016	64.325906	-0.000030	-0.303043	-0.102674	-0.002420
 480	2.3950e-01	19.1321	64.696951	0.000929	9.293306	3.148657	0.074209
 481	2.4000e-01	19.1738	64.551760	-0.000364	-3.636511	-1.232083	-0.029038
 482	2.4050e-01	19.2203	64.826010	0.000687	6.868966	2.327269	0.054850
 483	2.4100e-01	19.2572	65.193022	0.000919	9.192292	3.114433	0.073402
 484	2.4150e-01	19.2909	65.229320	0.000091	0.909128	0.308021	0.007260
 485	2.4200e-01	19.3358	65.067996	-0.000404	-4.040568	-1.368982	-0.032265
 486	2.4250e-01	19.3791	65.648762	0.001455	14.546045	4.928333	0.116153
 487	2.4300e-01	19.4080	65.370479	-0.000697	-6.969980	-2.361493	-0.055657
 488	2.4350e-01	19.4481	65.882682	0.001283	12.828803	4.346516	0.102441
 489	2.4400e-01	19.4882	66.092403	0.000525	5.252738	1.779676	0.041944
 490	2.4450e-01	19.5331	65.886715	-0.000515	-5.151724	-1.745451	-0.041138
 491	2.4500e-01	19.5797	66.213396	0.000818	8.182150	2.772188	0.065336
 492	2.4550e-01	19.6150	66.225496	0.000030	0.303043	0.102674	0.002420
 493	2.4600e-01	19.6615	66.156933	-0.000172	-1.717241	-0.581817	-0.013713
 494	2.4650e-01	19.6936	66.451349	0.000737	7.374037	2.498391	0.058883
 495	2.4700e-01	19.7289	66.447316	-0.000010	-0.101014	-0.034225	-0.000807
 496	2.4750e-01	19.7754	66.814328	0.000919	9.192292	3.114433	0.073402
 497	2.4800e-01	19.8155	66.794163	-0.000051	-0.505071	-0.171123	-0.004033
 498	2.4850e-01	19.8556	66.802229	0.000020	0.202028	0.068449	0.001613
 499	2.4900e-01	19.8941	67.245870	0.001111	11.111562	3.764699	0.088728
 500	2.4950e-01	19.9262	67.447524	0.000505	5.050710	1.711227	0.040331
 501	2.5000e-01	19.9695	67.370896	-0.000192	-1.919270	-0.650266	-0.015326
 502	2.5050e-01	19.9695	67.330565	0.000101	1.010142	0.342245	-0.008066
 503	2.5100e-01	19.9502	67.197472	0.000333	3.333469	1.129410	-0.026618
 504	2.5150e-01	19.9182	67.233770	-0.000091	-0.909128	-0.308021	0.007260
 505	2.5200e-01	19.8813	66.915155	0.000798	7.980122	2.703738	-0.063723
 506	2.5250e-01	19.8395	66.745765	0.000424	4.242596	1.437431	-0.033878
 507	2.5300e-01	19.8026	66.802229	-0.000141	-1.414199	-0.479144	0.011293
 508	2.5350e-01	19.7593	66.842560	-0.000101	-1.010142	-0.342245	0.008066
 509	2.5400e-01	19.7112	66.749798	0.000232	2.323327	0.787164	-0.018552
 510	2.5450e-01	19.6839	66.435217	0.000788	7.879108	2.669514	-0.062916
 511	2.5500e-01	19.6374	66.290025	0.000364	3.636511	1.232083	-0.029038
 512	2.5550e-01	19.5941	66.310191	-0.000051	-0.505071	-0.171123	0.004033
 513	2.5600e-01	19.5540	66.253727	0.000141	1.414199	0.479144	-0.011293
 514	2.5650e-01	19.5123	66.060139	0.000485	4.848682	1.642778	-0.038718
 515	2.5700e-01	19.4914	65.777822	0.000707	7.070994	2.395718	-0.056463
 516	2.5750e-01	19.4385	65.660862	0.000293	2.929412	0.992512	-0.023392
 517	2.5800e-01	19.3984	65.297883	0.000909	9.091278	3.080208	-0.072596
 518	2.5850e-01	19.3599	65.539869	-0.000606	-6.060852	-2.053472	0.048397
 519	2.5900e-01	19.3214	65.346280	0.000485	4.848682	1.642778	-0.038718
 520	2.5950e-01	19.2813	65.217221	0.000323	3.232454	1.095185	-0.025812
 521	2.6000e-01	19.2428	65.241420	-0.000061	-0.606085	-0.205347	0.004840
 522	2.6050e-01	19.2011	64.886507	0.000889	8.889250	3.011759	-0.070983
 523	2.6100e-01	19.1674	65.072029	-0.000465	-4.646653	-1.574329	0.037105
 524	2.6150e-01	19.1160	64.575958	0.001242	12.424747	4.209618	-0.099214
 525	2.6200e-01	19.0727	64.370270	0.000515	5.151724	1.745451	-0.041138
 526	2.6250e-01	19.0278	64.495296	-0.000313	-3.131440	-1.060961	0.025005
 527	2.6300e-01	19.0021	64.261377	0.000586	5.858824	1.985023	-0.046784
 528	2.6350e-01	18.9556	64.325906	-0.000162	-1.616227	-0.547593	0.012906
 529	2.6400e-01	18.9075	64.091986	0.000586	5.858824	1.985023	-0.046784
 530	2.6450e-01	18.8818	64.079887	0.000030	0.303043	0.102674	-0.002420
 531	2.6500e-01	18.8433	63.918563	0.000404	4.040568	1.368982	-0.032265
 532	2.6550e-01	18.8016	63.987126	-0.000172	-1.717241	-0.581817	0.013713
 533	2.6600e-01	18.7503	63.648346	0.000849	8.485193	2.874861	-0.067756
 534	2.6650e-01	18.7166	63.587849	0.000152	1.515213	0.513368	-0.012099
 535	2.6700e-01	18.6749	63.571717	0.000040	0.404057	0.136898	-0.003226
 536	2.6750e-01	18.6332	63.349896	0.000556	5.555781	1.882350	-0.044364
 537	2.6800e-01	18.5979	63.236970	0.000283	2.828398	0.958287	-0.022585
 538	2.6850e-01	18.5562	63.095811	0.000354	3.535497	1.197859	-0.028232
 539	2.6900e-01	18.5241	63.095811	-0.000000	-0.000000	-0.000000	0.000000
 540	2.6950e-01	18.4776	62.926421	0.000424	4.242596	1.437431	-0.033878
 541	2.7000e-01	18.4455	62.841726	0.000212	2.121298	0.718715	-0.016939
 542	2.7050e-01	18.4022	62.700567	0.000354	3.535497	1.197859	-0.028232
 543	2.7100e-01	18.3556	62.357754	0.000859	8.586207	2.909086	-0.068563
 544	2.7150e-01	18.3219	62.252893	0.000263	2.626369	0.889838	-0.020972
 545	2.7200e-01	18.2674	62.232728	0.000051	0.505071	0.171123	-0.004033
 546	2.7250e-01	18.2353	62.051239	0.000455	4.545639	1.540104	-0.036298
 547	2.7300e-01	18.2032	61.986709	0.000162	1.616227	0.547593	-0.012906
 548	2.7350e-01	18.1535	61.821352	0.000414	4.141582	1.403206	-0.033071
 549	2.7400e-01	18.1214	61.361579	0.001152	11.515619	3.901597	-0.091955
 550	2.7450e-01	18.0813	61.405943	-0.000111	-1.111156	-0.376470	0.008873
 551	2.7500e-01	18.0396	61.571300	-0.000414	-4.141582	-1.403206	0.033071
 552	2.7550e-01	17.9931	61.317215	0.000636	6.363895	2.156146	-0.050817
 553	2.7600e-01	17.9594	61.381744	-0.000162	-1.616227	-0.547593	0.012906
 554	2.7650e-01	17.9225	61.046997	0.000838	8.384179	2.840637	-0.066949
 555	2.7700e-01	17.8776	61.018765	0.000071	0.707099	0.239572	-0.005646
 556	2.7750e-01	17.8278	61.139758	-0.000303	-3.030426	-1.026736	0.024199
 557	2.7800e-01	17.8022	60.470264	0.001677	16.768357	5.681273	-0.133899
 558	2.7850e-01	17.7524	60.377503	0.000232	2.323327	0.787164	-0.018552
 559	2.7900e-01	17.7188	60.518661	-0.000354	-3.535497	-1.197859	0.028232
 560	2.7950e-01	17.6738	60.321039	0.000495	4.949696	1.677002	-0.039524
 561	2.8000e-01	17.6353	60.070987	0.000626	6.262880	2.121921	-0.050010
 562	2.8050e-01	17.5968	59.893531	0.000444	4.444625	1.505880	-0.035491
 563	2.8100e-01	17.5551	59.820935	0.000182	1.818256	0.616042	-0.014519
 564	2.8150e-01	17.5150	60.127451	-0.000768	-7.677079	-2.601065	0.061303
 565	2.8200e-01	17.4781	59.647512	0.001202	12.020690	4.072720	-0.095988
 566	2.8250e-01	17.4364	59.506353	0.000354	3.535497	1.197859	-0.028232
 567	2.8300e-01	17.3963	59.393427	0.000283	2.828398	0.958287	-0.022585
 568	2.8350e-01	17.3450	59.357129	0.000091	0.909128	0.308021	-0.007260
 569	2.8400e-01	17.3145	59.010282	0.000869	8.687221	2.943310	-0.069369
 570	2.8450e-01	17.2744	58.711833	0.000748	7.475051	2.532616	-0.059690
 571	2.8500e-01	17.2343	58.760230	-0.000121	-1.212170	-0.410694	0.009679
 572	2.8550e-01	17.2022	58.631171	0.000323	3.232454	1.095185	-0.025812
 573	2.8600e-01	17.1541	58.639237	-0.000020	-0.202028	-0.068449	0.001613
 574	2.8650e-01	17.1124	58.566641	0.000182	1.818256	0.616042	-0.014519
 575	2.8700e-01	17.0755	58.239960	0.000818	8.182150	2.772188	-0.065336
 576	2.8750e-01	17.0418	58.235927	0.000010	0.101014	0.034225	-0.000807
 577	2.8800e-01	17.0113	58.223828	0.000030	0.303043	0.102674	-0.002420
 578	2.8850e-01	16.9616	57.844717	0.000950	9.495335	3.217107	-0.075822
 579	2.8900e-01	16.9134	57.776154	0.000172	1.717241	0.581817	-0.013713
 580	2.8950e-01	16.8701	57.832617	-0.000141	-1.414199	-0.479144	0.011293
 581	2.9000e-01	16.8444	57.421241	0.001030	10.303448	3.490903	-0.082275
 582	2.9050e-01	16.7915	57.280083	0.000354	3.535497	1.197859	-0.028232
 583	2.9100e-01	16.7562	57.207487	0.000182	1.818256	0.616042	-0.014519
 584	2.9150e-01	16.7161	57.332513	-0.000313	-3.131440	-1.060961	0.025005
 585	2.9200e-01	16.6728	57.114726	0.000545	5.454767	1.848125	-0.043557
 586	2.9250e-01	16.6375	56.868707	0.000616	6.161866	2.087697	-0.049204
 587	2.9300e-01	16.5990	56.784012	0.000212	2.121298	0.718715	-0.016939
 588	2.9350e-01	16.5605	56.533960	0.000626	6.262880	2.121921	-0.050010
 589	2.9400e-01	16.5092	56.477496	0.000141	1.414199	0.479144	-0.011293
 590	2.9450e-01	16.4723	56.582357	-0.000263	-2.626369	-0.889838	0.020972
 591	2.9500e-01	16.4322	56.239543	0.000859	8.586207	2.909086	-0.068563
 592	2.9550e-01	16.4001	56.090319	0.000374	3.737525	1.266308	-0.029845
 593	2.9600e-01	16.3632	55.868498	0.000556	5.555781	1.882350	-0.044364
 594	2.9650e-01	16.3199	55.965293	-0.000242	-2.424341	-0.821389	0.019359
 595	2.9700e-01	16.2782	55.767671	0.000495	4.949696	1.677002	-0.039524
 596	2.9750e-01	16.2396	55.646678	0.000303	3.030426	1.026736	-0.024199
 597	2.9800e-01	16.1883	55.299831	0.000869	8.687221	2.943310	-0.069369
 598	2.9850e-01	16.1514	55.299831	-0.000000	-0.000000	-0.000000	0.000000
 599	2.9900e-01	16.1257	55.142541	0.000394	3.939554	1.334757	-0.031458
 600	2.9950e-01	16.0792	55.021548	0.000303	3.030426	1.026736	-0.024199
 601	3.0000e-01	16.0359	54.973150	0.000121	1.212170	0.410694	-0.009679
 602	3.0050e-01	15.9990	54.811827	0.000404	4.040568	1.368982	-0.032265
 603	3.0100e-01	15.9589	54.831992	-0.000051	-0.505071	-0.171123	0.004033
 604	3.0150e-01	15.9124	54.686800	0.000364	3.636511	1.232083	-0.029038
 605	3.0200e-01	15.8771	54.759396	-0.000182	-1.818256	-0.616042	0.014519
 606	3.0250e-01	15.8354	54.283491	0.001192	11.919676	4.038495	-0.095181
 607	3.0300e-01	15.7937	54.081836	0.000505	5.050710	1.711227	-0.040331
 608	3.0350e-01	15.7504	54.013273	0.000172	1.717241	0.581817	-0.013713
 609	3.0400e-01	15.7151	53.747089	0.000667	6.666937	2.258819	-0.053237
 610	3.0450e-01	15.6766	53.666427	0.000202	2.020284	0.684491	-0.016132
 611	3.0500e-01	15.6300	53.630129	0.000091	0.909128	0.308021	-0.007260
 612	3.0550e-01	15.5964	53.630129	-0.000000	-0.000000	-0.000000	0.000000
 613	3.0600e-01	15.5611	53.295381	0.000838	8.384179	2.840637	-0.066949
 614	3.0650e-01	15.5129	53.021131	0.000687	6.868966	2.327269	-0.054850
 615	3.0700e-01	15.4680	52.960634	0.000152	1.515213	0.513368	-0.012099
 616	3.0750e-01	15.4407	52.900138	0.000152	1.515213	0.513368	-0.012099
 617	3.0800e-01	15.3958	52.694450	0.000515	5.151724	1.745451	-0.041138
 618	3.0850e-01	15.3605	52.601689	0.000232	2.323327	0.787164	-0.018552
 619	3.0900e-01	15.3092	52.452464	0.000374	3.737525	1.266308	-0.029845
 620	3.0950e-01	15.2675	52.508927	-0.000141	-1.414199	-0.479144	0.011293
 621	3.1000e-01	15.2370	52.396000	0.000283	2.828398	0.958287	-0.022585
 622	3.1050e-01	15.1985	52.125783	0.000677	6.767951	2.293044	-0.054044
 623	3.1100e-01	15.1600	52.141915	-0.000040	-0.404057	-0.136898	0.003226
 624	3.1150e-01	15.1039	51.907996	0.000586	5.858824	1.985023	-0.046784
 625	3.1200e-01	15.0702	51.682142	0.000566	5.656795	1.916574	-0.045171
 626	3.1250e-01	15.0317	51.859598	-0.000444	-4.444625	-1.505880	0.035491
 627	3.1300e-01	14.9867	51.746672	0.000283	2.828398	0.958287	-0.022585
 628	3.1350e-01	14.9611	51.504686	0.000606	6.060852	2.053472	-0.048397
 629	3.1400e-01	14.9178	51.230435	0.000687	6.868966	2.327269	-0.054850
 630	3.1450e-01	14.8841	51.048946	0.000455	4.545639	1.540104	-0.036298
 631	3.1500e-01	14.8424	50.847291	0.000505	5.050710	1.711227	-0.040331
 632	3.1550e-01	14.7910	50.738397	0.000273	2.727383	0.924063	-0.021779
 633	3.1600e-01	14.7605	50.641603	0.000242	2.424341	0.821389	-0.019359
 634	3.1650e-01	14.7124	50.827125	-0.000465	-4.646653	-1.574329	0.037105
 635	3.1700e-01	14.6787	50.460113	0.000919	9.192292	3.114433	-0.073402
 636	3.1750e-01	14.6354	50.197962	0.000657	6.565923	2.224595	-0.052430
 637	3.1800e-01	14.5905	50.201995	-0.000010	-0.101014	-0.034225	0.000807
 638	3.1850e-01	14.5392	50.121333	0.000202	2.020284	0.684491	-0.016132
 639	3.1900e-01	14.5199	49.955976	0.000414	4.141582	1.403206	-0.033071
 640	3.1950e-01	14.4750	50.153598	-0.000495	-4.949696	-1.677002	0.039524
 641	3.2000e-01	14.4381	49.516368	0.001596	15.960244	5.407477	-0.127446
 642	3.2050e-01	14.4012	49.306647	0.000525	5.252738	1.779676	-0.041944
 643	3.2100e-01	14.3595	49.282448	0.000061	0.606085	0.205347	-0.004840
 644	3.2150e-01	14.3194	48.911403	0.000929	9.293306	3.148657	-0.074209
 645	3.2200e-01	14.2664	49.125158	-0.000535	-5.353753	-1.813900	0.042751
 646	3.2250e-01	14.2360	48.846874	0.000697	6.969980	2.361493	-0.055657
 647	3.2300e-01	14.1910	48.754112	0.000232	2.323327	0.787164	-0.018552
 648	3.2350e-01	14.1622	48.649252	0.000263	2.626369	0.889838	-0.020972
 649	3.2400e-01	14.1092	48.629086	0.000051	0.505071	0.171123	-0.004033
 650	3.2450e-01	14.0868	48.274174	0.000889	8.889250	3.011759	-0.070983
 651	3.2500e-01	14.0322	48.052353	0.000556	5.555781	1.882350	-0.044364
 652	3.2550e-01	14.0001	47.935393	0.000293	2.929412	0.992512	-0.023392
 653	3.2600e-01	13.9536	47.915228	0.000051	0.505071	0.171123	-0.004033
 654	3.2650e-01	13.9199	47.645010	0.000677	6.767951	2.293044	-0.054044
 655	3.2700e-01	13.8686	47.515951	0.000323	3.232454	1.095185	-0.025812
 656	3.2750e-01	13.8349	47.588547	-0.000182	-1.818256	-0.616042	0.014519
 657	3.2800e-01	13.7964	47.544183	0.000111	1.111156	0.376470	-0.008873
 658	3.2850e-01	13.7611	47.173138	0.000929	9.293306	3.148657	-0.074209
 659	3.2900e-01	13.7130	47.382859	-0.000525	-5.252738	-1.779676	0.041944
 660	3.2950e-01	13.6681	47.229601	0.000384	3.838540	1.300532	-0.030652
 661	3.3000e-01	13.6312	46.765795	0.001162	11.616633	3.935822	-0.092761
 662	3.3050e-01	13.5943	46.785960	-0.000051	-0.505071	-0.171123	0.004033
 663	3.3100e-01	13.5494	46.515743	0.000677	6.767951	2.293044	-0.054044
 664	3.3150e-01	13.5205	46.261658	0.000636	6.363895	2.156146	-0.050817
 665	3.3200e-01	13.4675	46.334253	-0.000182	-1.818256	-0.616042	0.014519
 666	3.3250e-01	13.4338	46.180996	0.000384	3.838540	1.300532	-0.030652
 667	3.3300e-01	13.3937	46.088234	0.000232	2.323327	0.787164	-0.018552
 668	3.3350e-01	13.3520	45.926910	0.000404	4.040568	1.368982	-0.032265
 669	3.3400e-01	13.3151	45.660726	0.000667	6.666937	2.258819	-0.053237
 670	3.3450e-01	13.2766	45.624428	0.000091	0.909128	0.308021	-0.007260
 671	3.3500e-01	13.2381	45.705090	-0.000202	-2.020284	-0.684491	0.016132
 672	3.3550e-01	13.1980	45.213052	0.001232	12.323732	4.175394	-0.098408
 673	3.3600e-01	13.1531	45.430839	-0.000545	-5.454767	-1.848125	0.043557
 674	3.3650e-01	13.1162	45.285648	0.000364	3.636511	1.232083	-0.029038
 675	3.3700e-01	13.0697	44.942834	0.000859	8.586207	2.909086	-0.068563
 676	3.3750e-01	13.0392	44.866205	0.000192	1.919270	0.650266	-0.015326
 677	3.3800e-01	12.9959	44.793610	0.000182	1.818256	0.616042	-0.014519
 678	3.3850e-01	12.9510	44.462896	0.000828	8.283164	2.806412	-0.066143
 679	3.3900e-01	12.9125	44.107983	0.000889	8.889250	3.011759	-0.070983
 680	3.3950e-01	12.8708	44.237042	-0.000323	-3.232454	-1.095185	0.025812
 681	3.4000e-01	12.8307	44.043453	0.000485	4.848682	1.642778	-0.038718
 682	3.4050e-01	12.8018	43.938593	0.000263	2.626369	0.889838	-0.020972
 683	3.4100e-01	12.7601	43.910361	0.000071	0.707099	0.239572	-0.005646
 684	3.4150e-01	12.7168	43.946659	-0.000091	-0.909128	-0.308021	0.007260
 685	3.4200e-01	12.6783	43.684508	0.000657	6.565923	2.224595	-0.052430
 686	3.4250e-01	12.6430	43.486886	0.000495	4.949696	1.677002	-0.039524
 687	3.4300e-01	12.5932	43.301363	0.000465	4.646653	1.574329	-0.037105
 688	3.4350e-01	12.5547	43.176337	0.000313	3.131440	1.060961	-0.025005
 689	3.4400e-01	12.5098	43.031146	0.000364	3.636511	1.232083	-0.029038
 690	3.4450e-01	12.4841	42.736729	0.000737	7.374037	2.498391	-0.058883
 691	3.4500e-01	12.4392	42.595571	0.000354	3.535497	1.197859	-0.028232
 692	3.4550e-01	12.3959	42.458446	0.000343	3.434483	1.163634	-0.027425
 693	3.4600e-01	12.3606	42.401982	0.000141	1.414199	0.479144	-0.011293
 694	3.4650e-01	12.3189	42.385850	0.000040	0.404057	0.136898	-0.003226
 695	3.4700e-01	12.2820	42.180162	0.000515	5.151724	1.745451	-0.041138
 696	3.4750e-01	12.2355	42.123698	0.000141	1.414199	0.479144	-0.011293
 697	3.4800e-01	12.1954	41.821216	0.000758	7.576065	2.566840	-0.060496
 698	3.4850e-01	12.1649	41.486469	0.000838	8.384179	2.840637	-0.066949
 699	3.4900e-01	12.1136	41.607462	-0.000303	-3.030426	-1.026736	0.024199
 700	3.4950e-01	12.0831	41.284814	0.000808	8.081136	2.737963	-0.064530
 701	3.5000e-01	12.0350	41.224317	0.000152	1.515213	0.513368	-0.012099
 702	3.5050e-01	11.9948	41.079126	0.000364	3.636511	1.232083	-0.029038
 703	3.5100e-01	11.9531	41.010563	0.000172	1.717241	0.581817	-0.013713
 704	3.5150e-01	11.9146	40.704048	0.000768	7.677079	2.601065	-0.061303
 705	3.5200e-01	11.8681	40.921835	-0.000545	-5.454767	-1.848125	0.043557
 706	3.5250e-01	11.8489	40.502393	0.001051	10.505477	3.559352	-0.083888
 707	3.5300e-01	11.7959	40.494327	0.000020	0.202028	0.068449	-0.001613
 708	3.5350e-01	11.7703	40.413665	0.000202	2.020284	0.684491	-0.016132
 709	3.5400e-01	11.7237	40.058752	0.000889	8.889250	3.011759	-0.070983
 710	3.5450e-01	11.6804	40.062785	-0.000010	-0.101014	-0.034225	0.000807
 711	3.5500e-01	11.6323	39.711905	0.000879	8.788235	2.977535	-0.070176
 712	3.5550e-01	11.5890	39.732071	-0.000051	-0.505071	-0.171123	0.004033
 713	3.5600e-01	11.5697	39.659475	0.000182	1.818256	0.616042	-0.014519
 714	3.5650e-01	11.5168	39.586879	0.000182	1.818256	0.616042	-0.014519
 715	3.5700e-01	11.4799	39.385224	0.000505	5.050710	1.711227	-0.040331
 716	3.5750e-01	11.4430	39.195669	0.000475	4.747667	1.608553	-0.037911
 717	3.5800e-01	11.3981	38.998047	0.000495	4.949696	1.677002	-0.039524
 718	3.5850e-01	11.3532	38.873021	0.000313	3.131440	1.060961	-0.025005
 719	3.5900e-01	11.3307	38.614903	0.000646	6.464909	2.190370	-0.051624
 720	3.5950e-01	11.2745	38.562472	0.000131	1.313185	0.444919	-0.010486
 721	3.6000e-01	11.2409	38.566505	-0.000010	-0.101014	-0.034225	0.000807
 722	3.6050e-01	11.1943	38.320486	0.000616	6.161866	2.087697	-0.049204
 723	3.6100e-01	11.1639	37.989772	0.000828	8.283164	2.806412	-0.066143
 724	3.6150e-01	11.1205	37.840548	0.000374	3.737525	1.266308	-0.029845
 725	3.6200e-01	11.0756	37.961541	-0.000303	-3.030426	-1.026736	0.024199
 726	3.6250e-01	11.0419	37.687290	0.000687	6.868966	2.327269	-0.054850
 727	3.6300e-01	10.9986	37.320278	0.000919	9.192292	3.114433	-0.073402
 728	3.6350e-01	10.9601	37.296079	0.000061	0.606085	0.205347	-0.004840
 729	3.6400e-01	10.9168	37.251715	0.000111	1.111156	0.376470	-0.008873
 730	3.6450e-01	10.8831	37.098457	0.000384	3.838540	1.300532	-0.030652
 731	3.6500e-01	10.8350	37.449337	-0.000879	-8.788235	-2.977535	0.070176
 732	3.6550e-01	10.7997	37.110557	0.000849	8.485193	2.874861	-0.067756
 733	3.6600e-01	10.7596	36.908902	0.000505	5.050710	1.711227	-0.040331
 734	3.6650e-01	10.7275	36.650784	0.000646	6.464909	2.190370	-0.051624
 735	3.6700e-01	10.6826	36.566088	0.000212	2.121298	0.718715	-0.016939
 736	3.6750e-01	10.6425	36.424930	0.000354	3.535497	1.197859	-0.028232
 737	3.6800e-01	10.5976	36.130514	0.000737	7.374037	2.498391	-0.058883
 738	3.6850e-01	10.5559	35.965157	0.000414	4.141582	1.403206	-0.033071
 739	3.6900e-01	10.5174	35.944991	0.000051	0.505071	0.171123	-0.004033
 740	3.6950e-01	10.4805	35.747369	0.000495	4.949696	1.677002	-0.039524
 741	3.7000e-01	10.4452	35.610244	0.000343	3.434483	1.163634	-0.027425
 742	3.7050e-01	10.3986	35.594112	0.000040	0.404057	0.136898	-0.003226
 743	3.7100e-01	10.3505	35.444887	0.000374	3.737525	1.266308	-0.029845
 744	3.7150e-01	10.3184	35.267431	0.000444	4.444625	1.505880	-0.035491
 745	3.7200e-01	10.2735	34.852022	0.001040	10.404463	3.525127	-0.083082
 746	3.7250e-01	10.2350	34.872187	-0.000051	-0.505071	-0.171123	0.004033
 747	3.7300e-01	10.2013	35.057710	-0.000465	-4.646653	-1.574329	0.037105
 748	3.7350e-01	10.1628	34.819757	0.000596	5.959838	2.019248	-0.047591
 749	3.7400e-01	10.1163	34.347884	0.001182	11.818661	4.004271	-0.094375
 750	3.7450e-01	10.0810	34.222858	0.000313	3.131440	1.060961	-0.025005
 751	3.7500e-01	10.0345	34.311586	-0.000222	-2.222312	-0.752940	0.017746
 752	3.7550e-01	9.9960	34.073634	0.000596	5.959838	2.019248	-0.047591
 753	3.7600e-01	9.9671	33.900210	0.000434	4.343611	1.471655	-0.034685
 754	3.7650e-01	9.9142	33.650158	0.000626	6.262880	2.121921	-0.050010
 755	3.7700e-01	9.8757	33.537231	0.000283	2.828398	0.958287	-0.022585
 756	3.7750e-01	9.8372	33.355742	0.000455	4.545639	1.540104	-0.036298
 757	3.7800e-01	9.8003	33.319444	0.000091	0.909128	0.308021	-0.007260
 758	3.7850e-01	9.7602	33.129888	0.000475	4.747667	1.608553	-0.037911
 759	3.7900e-01	9.7136	32.940333	0.000475	4.747667	1.608553	-0.037911
 760	3.7950e-01	9.6799	32.859671	0.000202	2.020284	0.684491	-0.016132
 761	3.8000e-01	9.6414	32.827406	0.000081	0.808114	0.273796	-0.006453
 762	3.8050e-01	9.5981	32.532990	0.000737	7.374037	2.498391	-0.058883
 763	3.8100e-01	9.5612	32.137746	0.000990	9.899392	3.354005	-0.079049
 764	3.8150e-01	9.5259	32.282938	-0.000364	-3.636511	-1.232083	0.029038
 765	3.8200e-01	9.4746	32.420063	-0.000343	-3.434483	-1.163634	0.027425
 766	3.8250e-01	9.4425	32.036919	0.000960	9.596349	3.251331	-0.076629
 767	3.8300e-01	9.3912	31.839297	0.000495	4.949696	1.677002	-0.039524
 768	3.8350e-01	9.3623	31.706205	0.000333	3.333469	1.129410	-0.026618
 769	3.8400e-01	9.3110	31.431954	0.000687	6.868966	2.327269	-0.054850
 770	3.8450e-01	9.2837	31.484384	-0.000131	-1.313185	-0.444919	0.010486
 771	3.8500e-01	9.2356	31.327093	0.000394	3.939554	1.334757	-0.031458
 772	3.8550e-01	9.2019	31.294829	0.000081	0.808114	0.273796	-0.006453
 773	3.8600e-01	9.1521	31.004446	0.000727	7.273022	2.464167	-0.058077
 774	3.8650e-01	9.1249	30.552738	0.001131	11.313590	3.833148	-0.090341
 775	3.8700e-01	9.0767	30.633400	-0.000202	-2.020284	-0.684491	0.016132
 776	3.8750e-01	9.0334	30.250256	0.000960	9.596349	3.251331	-0.076629
 777	3.8800e-01	9.0014	30.363183	-0.000283	-2.828398	-0.958287	0.022585
 778	3.8850e-01	8.9580	30.197826	0.000414	4.141582	1.403206	-0.033071
 779	3.8900e-01	8.9211	29.984072	0.000535	5.353753	1.813900	-0.042751
 780	3.8950e-01	8.8858	29.859046	0.000313	3.131440	1.060961	-0.025005
 781	3.9000e-01	8.8377	29.758218	0.000253	2.525355	0.855613	-0.020165
 782	3.9050e-01	8.8072	29.721920	0.000091	0.909128	0.308021	-0.007260
 783	3.9100e-01	8.7655	29.475901	0.000616	6.161866	2.087697	-0.049204
 784	3.9150e-01	8.7110	29.262147	0.000535	5.353753	1.813900	-0.042751
 785	3.9200e-01	8.6773	28.915300	0.000869	8.687221	2.943310	-0.069369
 786	3.9250e-01	8.6404	29.044360	-0.000323	-3.232454	-1.095185	0.025812
 787	3.9300e-01	8.5971	28.870936	0.000434	4.343611	1.471655	-0.034685
 788	3.9350e-01	8.5538	28.741877	0.000323	3.232454	1.095185	-0.025812
 789	3.9400e-01	8.5201	28.544255	0.000495	4.949696	1.677002	-0.039524
 790	3.9450e-01	8.4736	28.286137	0.000646	6.464909	2.190370	-0.051624
 791	3.9500e-01	8.4270	28.390998	-0.000263	-2.626369	-0.889838	0.020972
 792	3.9550e-01	8.3966	28.302269	0.000222	2.222312	0.752940	-0.017746
 793	3.9600e-01	8.3613	28.193376	0.000273	2.727383	0.924063	-0.021779
 794	3.9650e-01	8.3115	27.782000	0.001030	10.303448	3.490903	-0.082275
 795	3.9700e-01	8.2810	27.753768	0.000071	0.707099	0.239572	-0.005646
 796	3.9750e-01	8.2329	27.689238	0.000162	1.616227	0.547593	-0.012906
 797	3.9800e-01	8.2073	27.596477	0.000232	2.323327	0.787164	-0.018552
 798	3.9850e-01	8.1575	27.588411	0.000020	0.202028	0.068449	-0.001613
 799	3.9900e-01	8.1030	27.221399	0.000919	9.192292	3.114433	-0.073402
 800	3.9950e-01	8.0789	26.914884	0.000768	7.677079	2.601065	-0.061303
 801	4.0000e-01	8.0452	26.745493	0.000424	4.242596	1.437431	-0.033878
 802	4.0050e-01	7.9923	26.745493	-0.000000	-0.000000	-0.000000	0.000000
 803	4.0100e-01	7.9586	26.293786	0.001131	11.313590	3.833148	-0.090341
 804	4.0150e-01	7.9217	26.426879	-0.000333	-3.333469	-1.129410	0.026618
 805	4.0200e-01	7.8848	26.229257	0.000495	4.949696	1.677002	-0.039524
 806	4.0250e-01	7.8351	26.160694	0.000172	1.717241	0.581817	-0.013713
 807	4.0300e-01	7.7950	26.055834	0.000263	2.626369	0.889838	-0.020972
 808	4.0350e-01	7.7517	25.995337	0.000152	1.515213	0.513368	-0.012099
 809	4.0400e-01	7.7115	25.688822	0.000768	7.677079	2.601065	-0.061303
 810	4.0450e-01	7.6779	25.547663	0.000354	3.535497	1.197859	-0.028232
 811	4.0500e-01	7.6345	25.394405	0.000384	3.838540	1.300532	-0.030652
 812	4.0550e-01	7.5993	25.462968	-0.000172	-1.717241	-0.581817	0.013713
 813	4.0600e-01	7.5511	25.378273	0.000212	2.121298	0.718715	-0.016939
 814	4.0650e-01	7.5206	24.813639	0.001414	14.141988	4.791435	-0.112927
 815	4.0700e-01	7.4854	24.688613	0.000313	3.131440	1.060961	-0.025005
 816	4.0750e-01	7.4356	24.660381	0.000071	0.707099	0.239572	-0.005646
 817	4.0800e-01	7.3923	24.281270	0.000950	9.495335	3.217107	-0.075822
 818	4.0850e-01	7.3634	24.442594	-0.000404	-4.040568	-1.368982	0.032265
 819	4.0900e-01	7.3265	24.168343	0.000687	6.868966	2.327269	-0.054850
 820	4.0950e-01	7.2800	24.002986	0.000414	4.141582	1.403206	-0.033071
 821	4.1000e-01	7.2335	23.942490	0.000152	1.515213	0.513368	-0.012099
 822	4.1050e-01	7.1982	23.829563	0.000283	2.828398	0.958287	-0.022585
 823	4.1100e-01	7.1613	23.466584	0.000909	9.091278	3.080208	-0.072596
 824	4.1150e-01	7.1196	23.353657	0.000283	2.828398	0.958287	-0.022585
 825	4.1200e-01	7.0795	23.244764	0.000273	2.727383	0.924063	-0.021779
 826	4.1250e-01	7.0378	23.398022	-0.000384	-3.838540	-1.300532	0.030652
 827	4.1300e-01	6.9929	22.885818	0.001283	12.828803	4.346516	-0.102441
 828	4.1350e-01	6.9576	22.716428	0.000424	4.242596	1.437431	-0.033878
 829	4.1400e-01	6.9223	22.615600	0.000253	2.525355	0.855613	-0.020165
 830	4.1450e-01	6.8822	22.417979	0.000495	4.949696	1.677002	-0.039524
 831	4.1500e-01	6.8404	22.252622	0.000414	4.141582	1.403206	-0.033071
 832	4.1550e-01	6.7923	22.212291	0.000101	1.010142	0.342245	-0.008066
 833	4.1600e-01	6.7570	22.268754	-0.000141	-1.414199	-0.479144	0.011293
 834	4.1650e-01	6.7121	22.127595	0.000354	3.535497	1.197859	-0.028232
 835	4.1700e-01	6.6800	21.643624	0.001212	12.121704	4.106945	-0.096794
 836	4.1750e-01	6.6431	21.538763	0.000263	2.626369	0.889838	-0.020972
 837	4.1800e-01	6.5998	21.466167	0.000182	1.818256	0.616042	-0.014519
 838	4.1850e-01	6.5581	21.058824	0.001020	10.202434	3.456678	-0.081469
 839	4.1900e-01	6.5196	21.010427	0.000121	1.212170	0.410694	-0.009679
 840	4.1950e-01	6.4795	20.590985	0.001051	10.505477	3.559352	-0.083888
 841	4.2000e-01	6.4362	20.808772	-0.000545	-5.454767	-1.848125	0.043557
 842	4.2050e-01	6.4025	20.530488	0.000697	6.969980	2.361493	-0.055657
 843	4.2100e-01	6.3544	20.425628	0.000263	2.626369	0.889838	-0.020972
 844	4.2150e-01	6.3191	20.538555	-0.000283	-2.828398	-0.958287	0.022585
 845	4.2200e-01	6.2758	20.244138	0.000737	7.374037	2.498391	-0.058883
 846	4.2250e-01	6.2389	19.860994	0.000960	9.596349	3.251331	-0.076629
 847	4.2300e-01	6.1972	20.070715	-0.000525	-5.252738	-1.779676	0.041944
 848	4.2350e-01	6.1538	19.824696	0.000616	6.161866	2.087697	-0.049204
 849	4.2400e-01	6.1330	19.740001	0.000212	2.121298	0.718715	-0.016939
 850	4.2450e-01	6.0849	19.489949	0.000626	6.262880	2.121921	-0.050010
 851	4.2500e-01	6.0335	19.449618	0.000101	1.010142	0.342245	-0.008066
 852	4.2550e-01	6.0046	19.207632	0.000606	6.060852	2.053472	-0.048397
 853	4.2600e-01	5.9565	19.243930	-0.000091	-0.909128	-0.308021	0.007260
 854	4.2650e-01	5.9148	18.953547	0.000727	7.273022	2.464167	-0.058077
 855	4.2700e-01	5.8795	18.840620	0.000283	2.828398	0.958287	-0.022585
 856	4.2750e-01	5.8394	18.671230	0.000424	4.242596	1.437431	-0.033878
 857	4.2800e-01	5.8009	18.469575	0.000505	5.050710	1.711227	-0.040331
 858	4.2850e-01	5.7624	18.328417	0.000354	3.535497	1.197859	-0.028232
 859	4.2900e-01	5.7175	18.114662	0.000535	5.353753	1.813900	-0.042751
 860	4.2950e-01	5.6645	18.138861	-0.000061	-0.606085	-0.205347	0.004840
 861	4.3000e-01	5.6405	17.626657	0.001283	12.828803	4.346516	-0.102441
 862	4.3050e-01	5.6052	17.513731	0.000283	2.828398	0.958287	-0.022585
 863	4.3100e-01	5.5555	17.392738	0.000303	3.030426	1.026736	-0.024199
 864	4.3150e-01	5.5154	17.086222	0.000768	7.677079	2.601065	-0.061303
 865	4.3200e-01	5.4688	17.070090	0.000040	0.404057	0.136898	-0.003226
 866	4.3250e-01	5.4271	17.154785	-0.000212	-2.121298	-0.718715	0.016939
 867	4.3300e-01	5.4095	17.029759	0.000313	3.131440	1.060961	-0.025005
 868	4.3350e-01	5.3549	16.985395	0.000111	1.111156	0.376470	-0.008873
 869	4.3400e-01	5.3164	16.654681	0.000828	8.283164	2.806412	-0.066143
 870	4.3450e-01	5.2843	16.497390	0.000394	3.939554	1.334757	-0.031458
 871	4.3500e-01	5.2346	16.420761	0.000192	1.919270	0.650266	-0.015326
 872	4.3550e-01	5.1961	16.142477	0.000697	6.969980	2.361493	-0.055657
 873	4.3600e-01	5.1576	15.848061	0.000737	7.374037	2.498391	-0.058883
 874	4.3650e-01	5.1287	15.815796	0.000081	0.808114	0.273796	-0.006453
 875	4.3700e-01	5.0934	15.831929	-0.000040	-0.404057	-0.136898	0.003226
 876	4.3750e-01	5.0437	15.573810	0.000646	6.464909	2.190370	-0.051624
 877	4.3800e-01	4.9988	15.408453	0.000414	4.141582	1.403206	-0.033071
 878	4.3850e-01	4.9571	15.114037	0.000737	7.374037	2.498391	-0.058883
 879	4.3900e-01	4.9138	15.049507	0.000162	1.616227	0.547593	-0.012906
 880	4.3950e-01	4.8833	14.952713	0.000242	2.424341	0.821389	-0.019359
 881	4.4000e-01	4.8352	14.791389	0.000404	4.040568	1.368982	-0.032265
 882	4.4050e-01	4.8031	14.525205	0.000667	6.666937	2.258819	-0.053237
 883	4.4100e-01	4.7533	14.432443	0.000232	2.323327	0.787164	-0.018552
 884	4.4150e-01	4.7213	14.392112	0.000101	1.010142	0.342245	-0.008066
 885	4.4200e-01	4.6828	14.146093	0.000616	6.161866	2.087697	-0.049204
 886	4.4250e-01	4.6426	14.008968	0.000343	3.434483	1.163634	-0.027425
 887	4.4300e-01	4.5961	13.871843	0.000343	3.434483	1.163634	-0.027425
 888	4.4350e-01	4.5576	13.787148	0.000212	2.121298	0.718715	-0.016939
 889	4.4400e-01	4.5111	13.654055	0.000333	3.333469	1.129410	-0.026618
 890	4.4450e-01	4.4838	13.395937	0.000646	6.464909	2.190370	-0.051624
 891	4.4500e-01	4.4277	13.500798	-0.000263	-2.626369	-0.889838	0.020972
 892	4.4550e-01	4.3972	13.145885	0.000889	8.889250	3.011759	-0.070983
 893	4.4600e-01	4.3491	13.036991	0.000273	2.727383	0.924063	-0.021779
 894	4.4650e-01	4.3138	12.795005	0.000606	6.060852	2.053472	-0.048397
 895	4.4700e-01	4.2753	12.565119	0.000576	5.757809	1.950799	-0.045977
 896	4.4750e-01	4.2480	12.706277	-0.000354	-3.535497	-1.197859	0.028232
 897	4.4800e-01	4.1999	12.528821	0.000444	4.444625	1.505880	-0.035491
 898	4.4850e-01	4.1598	12.319100	0.000525	5.252738	1.779676	-0.041944
 899	4.4900e-01	4.1229	12.000485	0.000798	7.980122	2.703738	-0.063723
 900	4.4950e-01	4.0796	11.750433	0.000626	6.262880	2.121921	-0.050010
 901	4.5000e-01	4.0330	11.710102	0.000101	1.010142	0.342245	-0.008066
 902	4.5050e-01	4.0058	11.548778	0.000404	4.040568	1.368982	-0.032265
 903	4.5100e-01	3.9512	11.500381	0.000121	1.212170	0.410694	-0.009679
 904	4.5150e-01	3.9111	11.197898	0.000758	7.576065	2.566840	-0.060496
 905	4.5200e-01	3.8758	11.137402	0.000152	1.515213	0.513368	-0.012099
 906	4.5250e-01	3.8389	10.935747	0.000505	5.050710	1.711227	-0.040331
 907	4.5300e-01	3.8036	10.959945	-0.000061	-0.606085	-0.205347	0.004840
 908	4.5350e-01	3.7716	10.774423	0.000465	4.646653	1.574329	-0.037105
 909	4.5400e-01	3.7154	10.637298	0.000343	3.434483	1.163634	-0.027425
 910	4.5450e-01	3.6785	10.588900	0.000121	1.212170	0.410694	-0.009679
 911	4.5500e-01	3.6336	10.165425	0.001061	10.606491	3.593576	-0.084695
 912	4.5550e-01	3.5967	9.947638	0.000545	5.454767	1.848125	-0.043557
 913	4.5600e-01	3.5518	9.854876	0.000232	2.323327	0.787164	-0.018552
 914	4.5650e-01	3.5181	9.729850	0.000313	3.131440	1.060961	-0.025005
 915	4.5700e-01	3.4828	9.479798	0.000626	6.262880	2.121921	-0.050010
 916	4.5750e-01	3.4363	9.479798	-0.000000	-0.000000	-0.000000	0.000000
 917	4.5800e-01	3.3978	9.221680	0.000646	6.464909	2.190370	-0.051624
 918	4.5850e-01	3.3528	9.262011	-0.000101	-1.010142	-0.342245	0.008066
 919	4.5900e-01	3.3192	8.915164	0.000869	8.687221	2.943310	-0.069369
 920	4.5950e-01	3.2791	8.874833	0.000101	1.010142	0.342245	-0.008066
 921	4.6000e-01	3.2277	8.737708	0.000343	3.434483	1.163634	-0.027425
 922	4.6050e-01	3.2004	8.431193	0.000768	7.677079	2.601065	-0.061303
 923	4.6100e-01	3.1571	8.402961	0.000071	0.707099	0.239572	-0.005646
 924	4.6150e-01	3.1138	8.169041	0.000586	5.858824	1.985023	-0.046784
 925	4.6200e-01	3.0769	7.918989	0.000626	6.262880	2.121921	-0.050010
 926	4.6250e-01	3.0368	7.991585	-0.000182	-1.818256	-0.616042	0.014519
 927	4.6300e-01	2.9999	7.818162	0.000434	4.343611	1.471655	-0.034685
 928	4.6350e-01	2.9646	7.725400	0.000232	2.323327	0.787164	-0.018552
 929	4.6400e-01	2.9181	7.430984	0.000737	7.374037	2.498391	-0.058883
 930	4.6450e-01	2.8828	7.184965	0.000616	6.161866	2.087697	-0.049204
 931	4.6500e-01	2.8539	7.051873	0.000333	3.333469	1.129410	-0.026618
 932	4.6550e-01	2.8106	6.805854	0.000616	6.161866	2.087697	-0.049204
 933	4.6600e-01	2.7593	6.789721	0.000040	0.404057	0.136898	-0.003226
 934	4.6650e-01	2.7224	6.592100	0.000495	4.949696	1.677002	-0.039524
 935	4.6700e-01	2.6791	6.624364	-0.000081	-0.808114	-0.273796	0.006453
 936	4.6750e-01	2.6374	6.386412	0.000596	5.959838	2.019248	-0.047591
 937	4.6800e-01	2.5989	6.241220	0.000364	3.636511	1.232083	-0.029038
 938	4.6850e-01	2.5652	5.991168	0.000626	6.262880	2.121921	-0.050010
 939	4.6900e-01	2.5267	5.906473	0.000212	2.121298	0.718715	-0.016939
 940	4.6950e-01	2.4834	5.636255	0.000677	6.767951	2.293044	-0.054044
 941	4.7000e-01	2.4432	5.636255	-0.000000	-0.000000	-0.000000	0.000000
 942	4.7050e-01	2.4015	5.688686	-0.000131	-1.313185	-0.444919	0.010486
 943	4.7100e-01	2.3630	5.454766	0.000586	5.858824	1.985023	-0.046784
 944	4.7150e-01	2.3165	5.212780	0.000606	6.060852	2.053472	-0.048397
 945	4.7200e-01	2.2780	4.970794	0.000606	6.060852	2.053472	-0.048397
 946	4.7250e-01	2.2379	4.874000	0.000242	2.424341	0.821389	-0.019359
 947	4.7300e-01	2.1962	4.619914	0.000636	6.363895	2.156146	-0.050817
 948	4.7350e-01	2.1481	4.579583	0.000101	1.010142	0.342245	-0.008066
 949	4.7400e-01	2.1240	4.595716	-0.000040	-0.404057	-0.136898	0.003226
 950	4.7450e-01	2.0743	4.442458	0.000384	3.838540	1.300532	-0.030652
 951	4.7500e-01	2.0358	4.111744	0.000828	8.283164	2.806412	-0.066143
 952	4.7550e-01	1.9973	3.785063	0.000818	8.182150	2.772188	-0.065336
 953	4.7600e-01	1.9620	3.676169	0.000273	2.727383	0.924063	-0.021779
 954	4.7650e-01	1.9171	3.490647	0.000465	4.646653	1.574329	-0.037105
 955	4.7700e-01	1.8818	3.522912	-0.000081	-0.808114	-0.273796	0.006453
 956	4.7750e-01	1.8433	3.526945	-0.000010	-0.101014	-0.034225	0.000807
 957	4.7800e-01	1.7935	3.042973	0.001212	12.121704	4.106945	-0.096794
 958	4.7850e-01	1.7631	2.805020	0.000596	5.959838	2.019248	-0.047591
 959	4.7900e-01	1.7149	2.796954	0.000020	0.202028	0.068449	-0.001613
 960	4.7950e-01	1.6764	2.821152	-0.000061	-0.606085	-0.205347	0.004840
 961	4.8000e-01	1.6395	2.655795	0.000414	4.141582	1.403206	-0.033071
 962	4.8050e-01	1.5994	2.341214	0.000788	7.879108	2.669514	-0.062916
 963	4.8100e-01	1.5641	2.256519	0.000212	2.121298	0.718715	-0.016939
 964	4.8150e-01	1.5256	2.062930	0.000485	4.848682	1.642778	-0.038718
 965	4.8200e-01	1.4759	1.954036	0.000273	2.727383	0.924063	-0.021779
 966	4.8250e-01	1.4310	1.849176	0.000263	2.626369	0.889838	-0.020972
 967	4.8300e-01	1.3925	1.619289	0.000576	5.757809	1.950799	-0.045977
 968	4.8350e-01	1.3540	1.631388	-0.000030	-0.303043	-0.102674	0.002420
 969	4.8400e-01	1.3251	1.530561	0.000253	2.525355	0.855613	-0.020165
 970	4.8450e-01	1.2786	1.341005	0.000475	4.747667	1.608553	-0.037911
 971	4.8500e-01	1.2449	1.203880	0.000343	3.434483	1.163634	-0.027425
 972	4.8550e-01	1.2032	0.699743	0.001263	12.626775	4.278067	-0.100827
 973	4.8600e-01	1.1743	0.683610	0.000040	0.404057	0.136898	-0.003226
 974	4.8650e-01	1.1246	0.473889	0.000525	5.252738	1.779676	-0.041944
 975	4.8700e-01	1.0845	0.300466	0.000434	4.343611	1.471655	-0.034685
 976	4.8750e-01	1.0395	0.167374	0.000333	3.333469	1.129410	-0.026618
 977	4.8800e-01	0.9978	-0.042348	0.000525	5.252738	1.779676	-0.041944
 978	4.8850e-01	0.9577	-0.022182	-0.000051	-0.505071	-0.171123	0.004033
 979	4.8900e-01	0.9208	-0.094778	0.000182	1.818256	0.616042	-0.014519
 980	4.8950e-01	0.8823	-0.473889	0.000950	9.495335	3.217107	-0.075822
 981	4.9000e-01	0.8294	-0.598915	0.000313	3.131440	1.060961	-0.025005
 982	4.9050e-01	0.7973	-0.715875	0.000293	2.929412	0.992512	-0.023392
 983	4.9100e-01	0.7636	-0.703776	-0.000030	-0.303043	-0.102674	0.002420
 984	4.9150e-01	0.7219	-0.969960	0.000667	6.666937	2.258819	-0.053237
 985	4.9200e-01	0.6802	-1.183714	0.000535	5.353753	1.813900	-0.042751
 986	4.9250e-01	0.6417	-1.288575	0.000263	2.626369	0.889838	-0.020972
 987	4.9300e-01	0.6032	-1.353105	0.000162	1.616227	0.547593	-0.012906
 988	4.9350e-01	0.5535	-1.655587	0.000758	7.576065	2.566840	-0.060496
 989	4.9400e-01	0.5198	-1.603157	-0.000131	-1.313185	-0.444919	0.010486
 990	4.9450e-01	0.4845	-1.897573	0.000737	7.374037	2.498391	-0.058883
 991	4.9500e-01	0.4396	-2.135526	0.000596	5.959838	2.019248	-0.047591
 992	4.9550e-01	0.4011	-2.155691	0.000051	0.505071	0.171123	-0.004033
 993	4.9600e-01	0.3513	-2.333148	0.000444	4.444625	1.505880	-0.035491
 994	4.9650e-01	0.3337	-2.700160	0.000919	9.192292	3.114433	-0.073402
 995	4.9700e-01	0.2823	-2.607398	-0.000232	-2.323327	-0.787164	0.018552
 996	4.9750e-01	0.2438	-2.901814	0.000737	7.374037	2.498391	-0.058883
 997	4.9800e-01	0.1909	-2.736457	-0.000414	-4.141582	-1.403206	0.033071
 998	4.9850e-01	0.1508	-2.913914	0.000444	4.444625	1.505880	-0.035491
 999	4.9900e-01	0.1139	-3.365621	0.001131	11.313590	3.833148	-0.090341
1000	4.9950e-01	0.0738	-3.397886	0.000081	0.808114	0.273796	-0.006453
1001	5.0000e-01	0.0369	-3.841526	0.001111	11.111562	3.764699	-0.088728
1002	5.0050e-01	0.0016	-3.781030	-0.000152	-1.515213	-0.513368	0.012099
1003	5.0100e-01	-0.0321	-3.853626	0.000182	1.818256	0.616042	-0.014519
1004	5.0150e-01	-0.0722	-3.837493	-0.000040	-0.404057	-0.136898	0.003226
1005	5.0200e-01	-0.1171	-4.232737	0.000990	9.899392	3.354005	-0.079049
1006	5.0250e-01	-0.1572	-4.131910	-0.000253	-2.525355	-0.855613	0.020165
1007	5.0300e-01	-0.1893	-4.208538	0.000192	1.919270	0.650266	-0.015326
1008	5.0350e-01	-0.2358	-4.317432	0.000273	2.727383	0.924063	-0.021779
1009	5.0400e-01	-0.2743	-4.559418	0.000606	6.060852	2.053472	-0.048397
1010	5.0450e-01	-0.3176	-4.785271	0.000566	5.656795	1.916574	-0.045171
1011	5.0500e-01	-0.3513	-5.152283	0.000919	9.192292	3.114433	-0.073402
1012	5.0550e-01	-0.3882	-5.111952	-0.000101	-1.010142	-0.342245	0.008066
1013	5.0600e-01	-0.4492	-5.156317	0.000111	1.111156	0.376470	-0.008873
1014	5.0650e-01	-0.4765	-5.543494	0.000970	9.697363	3.285556	-0.077435
1015	5.0700e-01	-0.5150	-5.547527	0.000010	0.101014	0.034225	-0.000807
1016	5.0750e-01	-0.5583	-5.636255	0.000222	2.222312	0.752940	-0.017746
1017	5.0800e-01	-0.5952	-5.797579	0.000404	4.040568	1.368982	-0.032265
1018	5.0850e-01	-0.6369	-6.051664	0.000636	6.363895	2.156146	-0.050817
1019	5.0900e-01	-0.6754	-6.196856	0.000364	3.636511	1.232083	-0.029038
1020	5.0950e-01	-0.7107	-6.301717	0.000263	2.626369	0.889838	-0.020972
1021	5.1000e-01	-0.7540	-6.366246	0.000162	1.616227	0.547593	-0.012906
1022	5.1050e-01	-0.7989	-6.817953	0.001131	11.313590	3.833148	-0.090341
1023	5.1100e-01	-0.8406	-6.652596	-0.000414	-4.141582	-1.403206	0.033071
1024	5.1150e-01	-0.8743	-6.854251	0.000505	5.050710	1.711227	-0.040331
1025	5.1200e-01	-0.9128	-6.975244	0.000303	3.030426	1.026736	-0.024199
1026	5.1250e-01	-0.9625	-7.269660	0.000737	7.374037	2.498391	-0.058883
1027	5.1300e-01	-0.9962	-7.410819	0.000354	3.535497	1.197859	-0.028232
1028	5.1350e-01	-1.0315	-7.499547	0.000222	2.222312	0.752940	-0.017746
1029	5.1400e-01	-1.0716	-7.745566	0.000616	6.161866	2.087697	-0.049204
1030	5.1450e-01	-1.1133	-7.664904	-0.000202	-2.020284	-0.684491	0.016132
1031	5.1500e-01	-1.1502	-7.939155	0.000687	6.868966	2.327269	-0.054850
1032	5.1550e-01	-1.2000	-8.140810	0.000505	5.050710	1.711227	-0.040331
1033	5.1600e-01	-1.2337	-7.979486	-0.000404	-4.040568	-1.368982	0.032265
1034	5.1650e-01	-1.2657	-8.443292	0.001162	11.616633	3.935822	-0.092761
1035	5.1700e-01	-1.3042	-8.830469	0.000970	9.697363	3.285556	-0.077435
1036	5.1750e-01	-1.3556	-8.576384	-0.000636	-6.363895	-2.156146	0.050817
1037	5.1800e-01	-1.3957	-9.024058	0.001121	11.212576	3.798924	-0.089535
1038	5.1850e-01	-1.4262	-9.028091	0.000010	0.101014	0.034225	-0.000807
1039	5.1900e-01	-1.4823	-9.298309	0.000677	6.767951	2.293044	-0.054044
1040	5.1950e-01	-1.5224	-9.314441	0.000040	0.404057	0.136898	-0.003226
1041	5.2000e-01	-1.5593	-9.701619	0.000970	9.697363	3.285556	-0.077435
1042	5.2050e-01	-1.5882	-9.883108	0.000455	4.545639	1.540104	-0.036298
1043	5.2100e-01	-1.6363	-9.875042	-0.000020	-0.202028	-0.068449	0.001613
1044	5.2150e-01	-1.6780	-9.911340	0.000091	0.909128	0.308021	-0.007260
1045	5.2200e-01	-1.7149	-10.133160	0.000556	5.555781	1.882350	-0.044364
1046	5.2250e-01	-1.7486	-10.310617	0.000444	4.444625	1.505880	-0.035491
1047	5.2300e-01	-1.8064	-10.435643	0.000313	3.131440	1.060961	-0.025005
1048	5.2350e-01	-1.8417	-10.617132	0.000455	4.545639	1.540104	-0.036298
1049	5.2400e-01	-1.8818	-10.818787	0.000505	5.050710	1.711227	-0.040331
1050	5.2450e-01	-1.9122	-10.790555	-0.000071	-0.707099	-0.239572	0.005646
1051	5.2500e-01	-1.9636	-10.746191	-0.000111	-1.111156	-0.376470	0.008873
1052	5.2550e-01	-1.9941	-10.980111	0.000586	5.858824	1.985023	-0.046784
1053	5.2600e-01	-2.0390	-11.149501	0.000424	4.242596	1.437431	-0.033878
1054	5.2650e-01	-2.0711	-11.351156	0.000505	5.050710	1.711227	-0.040331
1055	5.2700e-01	-2.1240	-11.492314	0.000354	3.535497	1.197859	-0.028232
1056	5.2750e-01	-2.1625	-11.738333	0.000616	6.161866	2.087697	-0.049204
1057	5.2800e-01	-2.1946	-11.895624	0.000394	3.939554	1.334757	-0.031458
1058	5.2850e-01	-2.2395	-11.746400	-0.000374	-3.737525	-1.266308	0.029845
1059	5.2900e-01	-2.2828	-12.133577	0.000970	9.697363	3.285556	-0.077435
1060	5.2950e-01	-2.3117	-12.145676	0.000030	0.303043	0.102674	-0.002420
1061	5.3000e-01	-2.3566	-12.415894	0.000677	6.767951	2.293044	-0.054044
1062	5.3050e-01	-2.3983	-12.754674	0.000849	8.485193	2.874861	-0.067756
1063	5.3100e-01	-2.4368	-12.678045	-0.000192	-1.919270	-0.650266	0.015326
1064	5.3150e-01	-2.4801	-12.565119	-0.000283	-2.828398	-0.958287	0.022585
1065	5.3200e-01	-2.5122	-12.875667	0.000778	7.778093	2.635289	-0.062110
1066	5.3250e-01	-2.5620	-13.089422	0.000535	5.353753	1.813900	-0.042751
1067	5.3300e-01	-2.5908	-13.424169	0.000838	8.384179	2.840637	-0.066949
1068	5.3350e-01	-2.6325	-13.420136	-0.000010	-0.101014	-0.034225	0.000807
1069	5.3400e-01	-2.6727	-13.496764	0.000192	1.919270	0.650266	-0.015326
1070	5.3450e-01	-2.7079	-13.791181	0.000737	7.374037	2.498391	-0.058883
1071	5.3500e-01	-2.7673	-14.089630	0.000748	7.475051	2.532616	-0.059690
1072	5.3550e-01	-2.7930	-14.049299	-0.000101	-1.010142	-0.342245	0.008066
1073	5.3600e-01	-2.8315	-14.013001	-0.000091	-0.909128	-0.308021	0.007260
1074	5.3650e-01	-2.8700	-14.392112	0.000950	9.495335	3.217107	-0.075822
1075	5.3700e-01	-2.9101	-14.617966	0.000566	5.656795	1.916574	-0.045171
1076	5.3750e-01	-2.9534	-14.626032	0.000020	0.202028	0.068449	-0.001613
1077	5.3800e-01	-2.9839	-14.787356	0.000404	4.040568	1.368982	-0.032265
1078	5.3850e-01	-3.0240	-14.932548	0.000364	3.636511	1.232083	-0.029038
1079	5.3900e-01	-3.0817	-15.150335	0.000545	5.454767	1.848125	-0.043557
1080	5.3950e-01	-3.1090	-15.210831	0.000152	1.515213	0.513368	-0.012099
1081	5.4000e-01	-3.1523	-15.339891	0.000323	3.232454	1.095185	-0.025812
1082	5.4050e-01	-3.1956	-15.670605	0.000828	8.283164	2.806412	-0.066143
1083	5.4100e-01	-3.2309	-15.932756	0.000657	6.565923	2.224595	-0.052430
1084	5.4150e-01	-3.2935	-15.880326	-0.000131	-1.313185	-0.444919	0.010486
1085	5.4200e-01	-3.3111	-15.787564	-0.000232	-2.323327	-0.787164	0.018552
1086	5.4250e-01	-3.3561	-16.146510	0.000899	8.990264	3.045984	-0.071789
1087	5.4300e-01	-3.3930	-16.267503	0.000303	3.030426	1.026736	-0.024199
1088	5.4350e-01	-3.4411	-16.448993	0.000455	4.545639	1.540104	-0.036298
1089	5.4400e-01	-3.4828	-16.336066	-0.000283	-2.828398	-0.958287	0.022585
1090	5.4450e-01	-3.5069	-16.642581	0.000768	7.677079	2.601065	-0.061303
1091	5.4500e-01	-3.5630	-16.723243	0.000202	2.020284	0.684491	-0.016132
1092	5.4550e-01	-3.6031	-16.928931	0.000515	5.151724	1.745451	-0.041138
1093	5.4600e-01	-3.6320	-17.267712	0.000849	8.485193	2.874861	-0.067756
1094	5.4650e-01	-3.6785	-17.324175	0.000141	1.414199	0.479144	-0.011293
1095	5.4700e-01	-3.7122	-17.469367	0.000364	3.636511	1.232083	-0.029038
1096	5.4750e-01	-3.7587	-17.743617	0.000687	6.868966	2.327269	-0.054850
1097	5.4800e-01	-3.7908	-17.904941	0.000404	4.040568	1.368982	-0.032265
1098	5.4850e-01	-3.8325	-17.751683	-0.000384	-3.838540	-1.300532	0.030652
1099	5.4900e-01	-3.8871	-17.904941	0.000384	3.838540	1.300532	-0.030652
1100	5.4950e-01	-3.9159	-18.183225	0.000697	6.969980	2.361493	-0.055657
1101	5.5000e-01	-3.9657	-18.372781	0.000475	4.747667	1.608553	-0.037911
1102	5.5050e-01	-4.0074	-18.618800	0.000616	6.161866	2.087697	-0.049204
1103	5.5100e-01	-4.0411	-18.731726	0.000283	2.828398	0.958287	-0.022585
1104	5.5150e-01	-4.0764	-18.638965	-0.000232	-2.323327	-0.787164	0.018552
1105	5.5200e-01	-4.1165	-18.872885	0.000586	5.858824	1.985023	-0.046784
1106	5.5250e-01	-4.1421	-18.961613	0.000222	2.222312	0.752940	-0.017746
1107	5.5300e-01	-4.1983	-19.191500	0.000576	5.757809	1.950799	-0.045977
1108	5.5350e-01	-4.2352	-19.195533	0.000010	0.101014	0.034225	-0.000807
1109	5.5400e-01	-4.2769	-19.449618	0.000636	6.363895	2.156146	-0.050817
1110	5.5450e-01	-4.3234	-19.687571	0.000596	5.959838	2.019248	-0.047591
1111	5.5500e-01	-4.3523	-19.877126	0.000475	4.747667	1.608553	-0.037911
1112	5.5550e-01	-4.3940	-19.885193	0.000020	0.202028	0.068449	-0.001613
1113	5.5600e-01	-4.4437	-20.094914	0.000525	5.252738	1.779676	-0.041944
1114	5.5650e-01	-4.4758	-20.127179	0.000081	0.808114	0.273796	-0.006453
1115	5.5700e-01	-4.5079	-20.236072	0.000273	2.727383	0.924063	-0.021779
1116	5.5750e-01	-4.5560	-20.405462	0.000424	4.242596	1.437431	-0.033878
1117	5.5800e-01	-4.6074	-20.445793	0.000101	1.010142	0.342245	-0.008066
1118	5.5850e-01	-4.6346	-20.582919	0.000343	3.434483	1.163634	-0.027425
1119	5.5900e-01	-4.6747	-20.574853	-0.000020	-0.202028	-0.068449	0.001613
1120	5.5950e-01	-4.7197	-21.018493	0.001111	11.111562	3.764699	-0.088728
1121	5.6000e-01	-4.7614	-21.187884	0.000424	4.242596	1.437431	-0.033878
1122	5.6050e-01	-4.7983	-21.377439	0.000475	4.747667	1.608553	-0.037911
1123	5.6100e-01	-4.8336	-21.272579	-0.000263	-2.626369	-0.889838	0.020972
1124	5.6150e-01	-4.8705	-21.498432	0.000566	5.656795	1.916574	-0.045171
1125	5.6200e-01	-4.9250	-21.571028	0.000182	1.818256	0.616042	-0.014519
1126	5.6250e-01	-4.9619	-21.881576	0.000778	7.778093	2.635289	-0.062110
1127	5.6300e-01	-4.9972	-21.942073	0.000152	1.515213	0.513368	-0.012099
1128	5.6350e-01	-5.0389	-22.006603	0.000162	1.616227	0.547593	-0.012906
1129	5.6400e-01	-5.0726	-22.212291	0.000515	5.151724	1.745451	-0.041138
1130	5.6450e-01	-5.1095	-22.252622	0.000101	1.010142	0.342245	-0.008066
1131	5.6500e-01	-5.1608	-22.732560	0.001202	12.020690	4.072720	-0.095988
1132	5.6550e-01	-5.1945	-22.857586	0.000313	3.131440	1.060961	-0.025005
1133	5.6600e-01	-5.2378	-22.918083	0.000152	1.515213	0.513368	-0.012099
1134	5.6650e-01	-5.2715	-22.877752	-0.000101	-1.010142	-0.342245	0.008066
1135	5.6700e-01	-5.3148	-23.047142	0.000424	4.242596	1.437431	-0.033878
1136	5.6750e-01	-5.3630	-23.111672	0.000162	1.616227	0.547593	-0.012906
1137	5.6800e-01	-5.3998	-23.454485	0.000859	8.586207	2.909086	-0.068563
1138	5.6850e-01	-5.4416	-23.672272	0.000545	5.454767	1.848125	-0.043557
1139	5.6900e-01	-5.4672	-23.817464	0.000364	3.636511	1.232083	-0.029038
1140	5.6950e-01	-5.5170	-23.736802	-0.000202	-2.020284	-0.684491	0.016132
1141	5.7000e-01	-5.5539	-24.031218	0.000737	7.374037	2.498391	-0.058883
1142	5.7050e-01	-5.6004	-24.136079	0.000263	2.626369	0.889838	-0.020972
1143	5.7100e-01	-5.6341	-24.240939	0.000263	2.626369	0.889838	-0.020972
1144	5.7150e-01	-5.6774	-24.543422	0.000758	7.576065	2.566840	-0.060496
1145	5.7200e-01	-5.7175	-24.724911	0.000455	4.545639	1.540104	-0.036298
1146	5.7250e-01	-5.7512	-24.611984	-0.000283	-2.828398	-0.958287	0.022585
1147	5.7300e-01	-5.7961	-24.849937	0.000596	5.959838	2.019248	-0.047591
1148	5.7350e-01	-5.8378	-24.829772	-0.000051	-0.505071	-0.171123	0.004033
1149	5.7400e-01	-5.8619	-25.192750	0.000909	9.091278	3.080208	-0.072596
1150	5.7450e-01	-5.9228	-25.301644	0.000273	2.727383	0.924063	-0.021779
1151	5.7500e-01	-5.9726	-25.454902	0.000384	3.838540	1.300532	-0.030652
1152	5.7550e-01	-6.0014	-25.430703	-0.000061	-0.606085	-0.205347	0.004840
1153	5.7600e-01	-6.0399	-25.866278	0.001091	10.909534	3.696250	-0.087115
1154	5.7650e-01	-6.0768	-25.789649	-0.000192	-1.919270	-0.650266	0.015326
1155	5.7700e-01	-6.1105	-25.854179	0.000162	1.616227	0.547593	-0.012906
1156	5.7750e-01	-6.1442	-25.987271	0.000333	3.333469	1.129410	-0.026618
1157	5.7800e-01	-6.1907	-25.946940	-0.000101	-1.010142	-0.342245	0.008066
1158	5.7850e-01	-6.2437	-26.084065	0.000343	3.434483	1.163634	-0.027425
1159	5.7900e-01	-6.2726	-26.269588	0.000465	4.646653	1.574329	-0.037105
1160	5.7950e-01	-6.3175	-26.281687	0.000030	0.303043	0.102674	-0.002420
1161	5.8000e-01	-6.3576	-26.628534	0.000869	8.687221	2.943310	-0.069369
1162	5.8050e-01	-6.3945	-26.870519	0.000606	6.060852	2.053472	-0.048397
1163	5.8100e-01	-6.4394	-27.136704	0.000667	6.666937	2.258819	-0.053237
1164	5.8150e-01	-6.4763	-26.947148	-0.000475	-4.747667	-1.608553	0.037911
1165	5.8200e-01	-6.5196	-27.310127	0.000909	9.091278	3.080208	-0.072596
1166	5.8250e-01	-6.5501	-27.350458	0.000101	1.010142	0.342245	-0.008066
1167	5.8300e-01	-6.5998	-27.342392	-0.000020	-0.202028	-0.068449	0.001613
1168	5.8350e-01	-6.6303	-27.733603	0.000980	9.798377	3.319780	-0.078242
1169	5.8400e-01	-6.6688	-27.725536	-0.000020	-0.202028	-0.068449	0.001613
1170	5.8450e-01	-6.7217	-27.967522	0.000606	6.060852	2.053472	-0.048397
1171	5.8500e-01	-6.7522	-27.951390	-0.000040	-0.404057	-0.136898	0.003226
1172	5.8550e-01	-6.7971	-27.995754	0.000111	1.111156	0.376470	-0.008873
1173	5.8600e-01	-6.8292	-28.419229	0.001061	10.606491	3.593576	-0.084695
1174	5.8650e-01	-6.8661	-28.507957	0.000222	2.222312	0.752940	-0.017746
1175	5.8700e-01	-6.9239	-28.624917	0.000293	2.929412	0.992512	-0.023392
1176	5.8750e-01	-6.9527	-28.770109	0.000364	3.636511	1.232083	-0.029038
1177	5.8800e-01	-6.9880	-28.709612	-0.000152	-1.515213	-0.513368	0.012099
1178	5.8850e-01	-7.0362	-29.322643	0.001535	15.354158	5.202130	-0.122606
1179	5.8900e-01	-7.0731	-29.407338	0.000212	2.121298	0.718715	-0.016939
1180	5.8950e-01	-7.1116	-29.548497	0.000354	3.535497	1.197859	-0.028232
1181	5.9000e-01	-7.1501	-29.358941	-0.000475	-4.747667	-1.608553	0.037911
1182	5.9050e-01	-7.1934	-29.584795	0.000566	5.656795	1.916574	-0.045171
1183	5.9100e-01	-7.2367	-29.762251	0.000444	4.444625	1.505880	-0.035491
1184	5.9150e-01	-7.2800	-29.871145	0.000273	2.727383	0.924063	-0.021779
1185	5.9200e-01	-7.3137	-29.939707	0.000172	1.717241	0.581817	-0.013713
1186	5.9250e-01	-7.3586	-30.052634	0.000283	2.828398	0.958287	-0.022585
1187	5.9300e-01	-7.3907	-30.105065	0.000131	1.313185	0.444919	-0.010486
1188	5.9350e-01	-7.4292	-30.274455	0.000424	4.242596	1.437431	-0.033878
1189	5.9400e-01	-7.4709	-30.330918	0.000141	1.414199	0.479144	-0.011293
1190	5.9450e-01	-7.5190	-30.814890	0.001212	12.121704	4.106945	-0.096794
1191	5.9500e-01	-7.5527	-31.008479	0.000485	4.848682	1.642778	-0.038718
1192	5.9550e-01	-7.5896	-30.943949	-0.000162	-1.616227	-0.547593	0.012906
1193	5.9600e-01	-7.6345	-31.169803	0.000566	5.656795	1.916574	-0.045171
1194	5.9650e-01	-7.6779	-31.403722	0.000586	5.858824	1.985023	-0.046784
1195	5.9700e-01	-7.7180	-31.262564	-0.000354	-3.535497	-1.197859	0.028232
1196	5.9750e-01	-7.7597	-31.524715	0.000657	6.565923	2.224595	-0.052430
1197	5.9800e-01	-7.7950	-31.460186	-0.000162	-1.616227	-0.547593	0.012906
1198	5.9850e-01	-7.8351	-31.577146	0.000293	2.929412	0.992512	-0.023392
1199	5.9900e-01	-7.8752	-31.561013	-0.000040	-0.404057	-0.136898	0.003226
1200	5.9950e-01	-7.9105	-31.855429	0.000737	7.374037	2.498391	-0.058883
1201	6.0000e-01	-7.9522	-32.234541	0.000950	9.495335	3.217107	-0.075822
1202	6.0050e-01	-7.9859	-32.323269	0.000222	2.222312	0.752940	-0.017746
1203	6.0100e-01	-8.0292	-32.468460	0.000364	3.636511	1.232083	-0.029038
1204	6.0150e-01	-8.0773	-32.407964	-0.000152	-1.515213	-0.513368	0.012099
1205	6.0200e-01	-8.1222	-32.609619	0.000505	5.050710	1.711227	-0.040331
1206	6.0250e-01	-8.1479	-32.803207	0.000485	4.848682	1.642778	-0.038718
1207	6.0300e-01	-8.1960	-32.847572	0.000111	1.111156	0.376470	-0.008873
1208	6.0350e-01	-8.2297	-33.037127	0.000475	4.747667	1.608553	-0.037911
1209	6.0400e-01	-8.2810	-32.976631	-0.000152	-1.515213	-0.513368	0.012099
1210	6.0450e-01	-8.3147	-33.069392	0.000232	2.323327	0.787164	-0.018552
1211	6.0500e-01	-8.3500	-33.254915	0.000465	4.646653	1.574329	-0.037105
1212	6.0550e-01	-8.3869	-33.517066	0.000657	6.565923	2.224595	-0.052430
1213	6.0600e-01	-8.4270	-33.783250	0.000667	6.666937	2.258819	-0.053237
1214	6.0650e-01	-8.4800	-33.799383	0.000040	0.404057	0.136898	-0.003226
1215	6.0700e-01	-8.5137	-34.109931	0.000778	7.778093	2.635289	-0.062110
1216	6.0750e-01	-8.5554	-33.908276	-0.000505	-5.050710	-1.711227	0.040331
1217	6.0800e-01	-8.5923	-34.206726	0.000748	7.475051	2.532616	-0.059690
1218	6.0850e-01	-8.6356	-34.202693	-0.000010	-0.101014	-0.034225	0.000807
1219	6.0900e-01	-8.6677	-34.630201	0.001071	10.707505	3.627801	-0.085502
1220	6.0950e-01	-8.7094	-34.718929	0.000222	2.222312	0.752940	-0.017746
1221	6.1000e-01	-8.7575	-34.718929	-0.000000	-0.000000	-0.000000	0.000000
1222	6.1050e-01	-8.7976	-34.489043	-0.000576	-5.757809	-1.950799	0.045977
1223	6.1100e-01	-8.8361	-34.815724	0.000818	8.182150	2.772188	-0.065336
1224	6.1150e-01	-8.8746	-35.303729	0.001222	12.222718	4.141169	-0.097601
1225	6.1200e-01	-8.9131	-35.388424	0.000212	2.121298	0.718715	-0.016939
1226	6.1250e-01	-8.9564	-35.182736	-0.000515	-5.151724	-1.745451	0.041138
1227	6.1300e-01	-8.9917	-35.420688	0.000596	5.959838	2.019248	-0.047591
1228	6.1350e-01	-9.0286	-35.569913	0.000374	3.737525	1.266308	-0.029845
1229	6.1400e-01	-9.0687	-35.731237	0.000404	4.040568	1.368982	-0.032265
1230	6.1450e-01	-9.1088	-35.961124	0.000576	5.757809	1.950799	-0.045977
1231	6.1500e-01	-9.1441	-36.231341	0.000677	6.767951	2.293044	-0.054044
1232	6.1550e-01	-9.1939	-36.408798	0.000444	4.444625	1.505880	-0.035491
1233	6.1600e-01	-9.2356	-36.162779	-0.000616	-6.161866	-2.087697	0.049204
1234	6.1650e-01	-9.2677	-36.509625	0.000869	8.687221	2.943310	-0.069369
1235	6.1700e-01	-9.3158	-36.275705	-0.000586	-5.858824	-1.985023	0.046784
1236	6.1750e-01	-9.3559	-36.533824	0.000646	6.464909	2.190370	-0.051624
1237	6.1800e-01	-9.3896	-36.812107	0.000697	6.969980	2.361493	-0.055657
1238	6.1850e-01	-9.4281	-36.864538	0.000131	1.313185	0.444919	-0.010486
1239	6.1900e-01	-9.4762	-37.126689	0.000657	6.565923	2.224595	-0.052430
1240	6.1950e-01	-9.5179	-36.908902	-0.000545	-5.454767	-1.848125	0.043557
1241	6.2000e-01	-9.5452	-37.187186	0.000697	6.969980	2.361493	-0.055657
1242	6.2050e-01	-9.5981	-37.469503	0.000707	7.070994	2.395718	-0.056463
1243	6.2100e-01	-9.6382	-37.590496	0.000303	3.030426	1.026736	-0.024199
1244	6.2150e-01	-9.6687	-37.642926	0.000131	1.313185	0.444919	-0.010486
1245	6.2200e-01	-9.7168	-37.901044	0.000646	6.464909	2.190370	-0.051624
1246	6.2250e-01	-9.7505	-37.808283	-0.000232	-2.323327	-0.787164	0.018552
1247	6.2300e-01	-9.7970	-37.945408	0.000343	3.434483	1.163634	-0.027425
1248	6.2350e-01	-9.8356	-38.280155	0.000838	8.384179	2.840637	-0.066949
1249	6.2400e-01	-9.8789	-38.385016	0.000263	2.626369	0.889838	-0.020972
1250	6.2450e-01	-9.9270	-38.501976	0.000293	2.929412	0.992512	-0.023392
1251	6.2500e-01	-9.9543	-38.776227	0.000687	6.868966	2.327269	-0.054850
1252	6.2550e-01	-9.9880	-38.840756	0.000162	1.616227	0.547593	-0.012906
1253	6.2600e-01	-10.0361	-38.925451	0.000212	2.121298	0.718715	-0.016939
1254	6.2650e-01	-10.0698	-38.917385	-0.000020	-0.202028	-0.068449	0.001613
1255	6.2700e-01	-10.1179	-39.030312	0.000283	2.828398	0.958287	-0.022585
1256	6.2750e-01	-10.1644	-39.062577	0.000081	0.808114	0.273796	-0.006453
1257	6.2800e-01	-10.2045	-39.361026	0.000748	7.475051	2.532616	-0.059690
1258	6.2850e-01	-10.2334	-39.183569	-0.000444	-4.444625	-1.505880	0.035491
1259	6.2900e-01	-10.2703	-39.482019	0.000748	7.475051	2.532616	-0.059690
1260	6.2950e-01	-10.3072	-39.526383	0.000111	1.111156	0.376470	-0.008873
1261	6.3000e-01	-10.3601	-39.711905	0.000465	4.646653	1.574329	-0.037105
1262	6.3050e-01	-10.3938	-39.877262	0.000414	4.141582	1.403206	-0.033071
1263	6.3100e-01	-10.4355	-40.183778	0.000768	7.677079	2.601065	-0.061303
1264	6.3150e-01	-10.4821	-40.139414	-0.000111	-1.111156	-0.376470	0.008873
1265	6.3200e-01	-10.5109	-40.324936	0.000465	4.646653	1.574329	-0.037105
1266	6.3250e-01	-10.5494	-40.433830	0.000273	2.727383	0.924063	-0.021779
1267	6.3300e-01	-10.5944	-40.566922	0.000333	3.333469	1.129410	-0.026618
1268	6.3350e-01	-10.6377	-40.712114	0.000364	3.636511	1.232083	-0.029038
1269	6.3400e-01	-10.6730	-40.796809	0.000212	2.121298	0.718715	-0.016939
1270	6.3450e-01	-10.7131	-40.982331	0.000465	4.646653	1.574329	-0.037105
1271	6.3500e-01	-10.7612	-40.881504	-0.000253	-2.525355	-0.855613	0.020165
1272	6.3550e-01	-10.7917	-41.196086	0.000788	7.879108	2.669514	-0.062916
1273	6.3600e-01	-10.8382	-41.188019	-0.000020	-0.202028	-0.068449	0.001613
1274	6.3650e-01	-10.8767	-41.438072	0.000626	6.262880	2.121921	-0.050010
1275	6.3700e-01	-10.9184	-41.563098	0.000313	3.131440	1.060961	-0.025005
1276	6.3750e-01	-10.9569	-41.732488	0.000424	4.242596	1.437431	-0.033878
1277	6.3800e-01	-10.9938	-41.712322	-0.000051	-0.505071	-0.171123	0.004033
1278	6.3850e-01	-11.0323	-42.147897	0.001091	10.909534	3.696250	-0.087115
1279	6.3900e-01	-11.0692	-42.329386	0.000455	4.545639	1.540104	-0.036298
1280	6.3950e-01	-11.1254	-42.260824	-0.000172	-1.717241	-0.581817	0.013713
1281	6.4000e-01	-11.1558	-42.385850	0.000313	3.131440	1.060961	-0.025005
1282	6.4050e-01	-11.1991	-42.244691	-0.000354	-3.535497	-1.197859	0.028232
1283	6.4100e-01	-11.2409	-42.684299	0.001101	11.010548	3.730475	-0.087922
1284	6.4150e-01	-11.2794	-42.607670	-0.000192	-1.919270	-0.650266	0.015326
1285	6.4200e-01	-11.3195	-42.813358	0.000515	5.151724	1.745451	-0.041138
1286	6.4250e-01	-11.3628	-43.140039	0.000818	8.182150	2.772188	-0.065336
1287	6.4300e-01	-11.3917	-43.228767	0.000222	2.222312	0.752940	-0.017746
1288	6.4350e-01	-11.4318	-43.349760	0.000303	3.030426	1.026736	-0.024199
1289	6.4400e-01	-11.4783	-43.216668	-0.000333	-3.333469	-1.129410	0.026618
1290	6.4450e-01	-11.5184	-43.430422	0.000535	5.353753	1.813900	-0.042751
1291	6.4500e-01	-11.5489	-43.434455	0.000010	0.101014	0.034225	-0.000807
1292	6.4550e-01	-11.5938	-43.648210	0.000535	5.353753	1.813900	-0.042751
1293	6.4600e-01	-11.6275	-43.825666	0.000444	4.444625	1.505880	-0.035491
1294	6.4650e-01	-11.6724	-43.999089	0.000434	4.343611	1.471655	-0.034685
1295	6.4700e-01	-11.7173	-44.083784	0.000212	2.121298	0.718715	-0.016939
1296	6.4750e-01	-11.7478	-44.103950	0.000051	0.505071	0.171123	-0.004033
1297	6.4800e-01	-11.7959	-44.321737	0.000545	5.454767	1.848125	-0.043557
1298	6.4850e-01	-11.8344	-44.426598	0.000263	2.626369	0.889838	-0.020972
1299	6.4900e-01	-11.8697	-44.462896	0.000091	0.909128	0.308021	-0.007260
1300	6.4950e-01	-11.9211	-44.503227	0.000101	1.010142	0.342245	-0.008066
1301	6.5000e-01	-11.9547	-44.745212	0.000606	6.060852	2.053472	-0.048397
1302	6.5050e-01	-11.9965	-44.902503	0.000394	3.939554	1.334757	-0.031458
1303	6.5100e-01	-12.0317	-45.168688	0.000667	6.666937	2.258819	-0.053237
1304	6.5150e-01	-12.0702	-45.140456	-0.000071	-0.707099	-0.239572	0.005646
1305	6.5200e-01	-12.1136	-45.152555	0.000030	0.303043	0.102674	-0.002420
1306	6.5250e-01	-12.1569	-45.350177	0.000495	4.949696	1.677002	-0.039524
1307	6.5300e-01	-12.1938	-45.555865	0.000515	5.151724	1.745451	-0.041138
1308	6.5350e-01	-12.2291	-45.523600	-0.000081	-0.808114	-0.273796	0.006453
1309	6.5400e-01	-12.2724	-45.934977	0.001030	10.303448	3.490903	-0.082275
1310	6.5450e-01	-12.3157	-45.761553	-0.000434	-4.343611	-1.471655	0.034685
1311	6.5500e-01	-12.3574	-46.072102	0.000778	7.778093	2.635289	-0.062110
1312	6.5550e-01	-12.3895	-46.306022	0.000586	5.858824	1.985023	-0.046784
1313	6.5600e-01	-12.4360	-46.289889	-0.000040	-0.404057	-0.136898	0.003226
1314	6.5650e-01	-12.4777	-46.523809	0.000586	5.858824	1.985023	-0.046784
1315	6.5700e-01	-12.5098	-46.495577	-0.000071	-0.707099	-0.239572	0.005646
1316	6.5750e-01	-12.5531	-46.515743	0.000051	0.505071	0.171123	-0.004033
1317	6.5800e-01	-12.6061	-46.890821	0.000939	9.394321	3.182882	-0.075016
1318	6.5850e-01	-12.6301	-47.003748	0.000283	2.828398	0.958287	-0.022585
1319	6.5900e-01	-12.6799	-46.979549	-0.000061	-0.606085	-0.205347	0.004840
1320	6.5950e-01	-12.7071	-47.011814	0.000081	0.808114	0.273796	-0.006453
1321	6.6000e-01	-12.7488	-47.181204	0.000424	4.242596	1.437431	-0.033878
1322	6.6050e-01	-12.7938	-47.124741	-0.000141	-1.414199	-0.479144	0.011293
1323	6.6100e-01	-12.8355	-47.390925	0.000667	6.666937	2.258819	-0.053237
1324	6.6150e-01	-12.8724	-47.786169	0.000990	9.899392	3.354005	-0.079049
1325	6.6200e-01	-12.9093	-47.560315	-0.000566	-5.656795	-1.916574	0.045171
1326	6.6250e-01	-12.9397	-47.802301	0.000606	6.060852	2.053472	-0.048397
1327	6.6300e-01	-12.9975	-47.895062	0.000232	2.323327	0.787164	-0.018552
1328	6.6350e-01	-13.0376	-48.104784	0.000525	5.252738	1.779676	-0.041944
1329	6.6400e-01	-13.0825	-48.245942	0.000354	3.535497	1.197859	-0.028232
1330	6.6450e-01	-13.1146	-48.173346	-0.000182	-1.818256	-0.616042	0.014519
1331	6.6500e-01	-13.1483	-48.512127	0.000849	8.485193	2.874861	-0.067756
1332	6.6550e-01	-13.1932	-48.564557	0.000131	1.313185	0.444919	-0.010486
1333	6.6600e-01	-13.2301	-48.762179	0.000495	4.949696	1.677002	-0.039524
1334	6.6650e-01	-13.2686	-48.810576	0.000121	1.212170	0.410694	-0.009679
1335	6.6700e-01	-13.3135	-49.141290	0.000828	8.283164	2.806412	-0.066143
1336	6.6750e-01	-13.3456	-49.088860	-0.000131	-1.313185	-0.444919	0.010486
1337	6.6800e-01	-13.4018	-49.113058	0.000061	0.606085	0.205347	-0.004840
1338	6.6850e-01	-13.4354	-49.165489	0.000131	1.313185	0.444919	-0.010486
1339	6.6900e-01	-13.4723	-49.334879	0.000424	4.242596	1.437431	-0.033878
1340	6.6950e-01	-13.5189	-49.492169	0.000394	3.939554	1.334757	-0.031458
1341	6.7000e-01	-13.5606	-49.556699	0.000162	1.616227	0.547593	-0.012906
1342	6.7050e-01	-13.5895	-49.524434	-0.000081	-0.808114	-0.273796	0.006453
1343	6.7100e-01	-13.6360	-49.637361	0.000283	2.828398	0.958287	-0.022585
1344	6.7150e-01	-13.6745	-50.020505	0.000960	9.596349	3.251331	-0.076629
1345	6.7200e-01	-13.7162	-49.895479	-0.000313	-3.131440	-1.060961	0.025005
1346	6.7250e-01	-13.7643	-50.012439	0.000293	2.929412	0.992512	-0.023392
1347	6.7300e-01	-13.7980	-50.210061	0.000495	4.949696	1.677002	-0.039524
1348	6.7350e-01	-13.8301	-50.286690	0.000192	1.919270	0.650266	-0.015326
1349	6.7400e-01	-13.8686	-50.585139	0.000748	7.475051	2.532616	-0.059690
1350	6.7450e-01	-13.9119	-50.714198	0.000323	3.232454	1.095185	-0.025812
1351	6.7500e-01	-13.9552	-50.722265	0.000020	0.202028	0.068449	-0.001613
1352	6.7550e-01	-13.9905	-50.903754	0.000455	4.545639	1.540104	-0.036298
1353	6.7600e-01	-14.0402	-50.972317	0.000172	1.717241	0.581817	-0.013713
1354	6.7650e-01	-14.0739	-50.944085	-0.000071	-0.707099	-0.239572	0.005646
1355	6.7700e-01	-14.1156	-50.996515	0.000131	1.313185	0.444919	-0.010486
1356	6.7750e-01	-14.1558	-51.290931	0.000737	7.374037	2.498391	-0.058883
1357	6.7800e-01	-14.1959	-51.403858	0.000283	2.828398	0.958287	-0.022585
1358	6.7850e-01	-14.2328	-51.666010	0.000657	6.565923	2.224595	-0.052430
1359	6.7900e-01	-14.2841	-51.557116	-0.000273	-2.727383	-0.924063	0.021779
1360	6.7950e-01	-14.3065	-51.766837	0.000525	5.252738	1.779676	-0.041944
1361	6.8000e-01	-14.3579	-51.920095	0.000384	3.838540	1.300532	-0.030652
1362	6.8050e-01	-14.3948	-52.170147	0.000626	6.262880	2.121921	-0.050010
1363	6.8100e-01	-14.4237	-51.916062	-0.000636	-6.363895	-2.156146	0.050817
1364	6.8150e-01	-14.4766	-52.089485	0.000434	4.343611	1.471655	-0.034685
1365	6.8200e-01	-14.5103	-52.266941	0.000444	4.444625	1.505880	-0.035491
1366	6.8250e-01	-14.5552	-52.311305	0.000111	1.111156	0.376470	-0.008873
1367	6.8300e-01	-14.5953	-52.424232	0.000283	2.828398	0.958287	-0.022585
1368	6.8350e-01	-14.6386	-52.585556	0.000404	4.040568	1.368982	-0.032265
1369	6.8400e-01	-14.6595	-52.581523	-0.000010	-0.101014	-0.034225	0.000807
1370	6.8450e-01	-14.7044	-52.912237	0.000828	8.283164	2.806412	-0.066143
1371	6.8500e-01	-14.7605	-52.908204	-0.000010	-0.101014	-0.034225	0.000807
1372	6.8550e-01	-14.7942	-53.154223	0.000616	6.161866	2.087697	-0.049204
1373	6.8600e-01	-14.8311	-53.246984	0.000232	2.323327	0.787164	-0.018552
1374	6.8650e-01	-14.8761	-53.295381	0.000121	1.212170	0.410694	-0.009679
1375	6.8700e-01	-14.9178	-53.138091	-0.000394	-3.939554	-1.334757	0.031458
1376	6.8750e-01	-14.9595	-53.634162	0.001242	12.424747	4.209618	-0.099214
1377	6.8800e-01	-14.9980	-53.823717	0.000475	4.747667	1.608553	-0.037911
1378	6.8850e-01	-15.0236	-53.956810	0.000333	3.333469	1.129410	-0.026618
1379	6.8900e-01	-15.0750	-54.097968	0.000354	3.535497	1.197859	-0.028232
1380	6.8950e-01	-15.1119	-53.993108	-0.000263	-2.626369	-0.889838	0.020972
1381	6.9000e-01	-15.1584	-54.174597	0.000455	4.545639	1.540104	-0.036298
1382	6.9050e-01	-15.1985	-54.255259	0.000202	2.020284	0.684491	-0.016132
1383	6.9100e-01	-15.2322	-54.327855	0.000182	1.818256	0.616042	-0.014519
1384	6.9150e-01	-15.2819	-54.509344	0.000455	4.545639	1.540104	-0.036298
1385	6.9200e-01	-15.3140	-54.222994	-0.000717	-7.172008	-2.429942	0.057270
1386	6.9250e-01	-15.3509	-54.884422	0.001657	16.566329	5.612824	-0.132286
1387	6.9300e-01	-15.3958	-54.739231	-0.000364	-3.636511	-1.232083	0.029038
1388	6.9350e-01	-15.4295	-54.924753	0.000465	4.646653	1.574329	-0.037105
1389	6.9400e-01	-15.4760	-54.957018	0.000081	0.808114	0.273796	-0.006453
1390	6.9450e-01	-15.5210	-54.961051	0.000010	0.101014	0.034225	-0.000807
1391	6.9500e-01	-15.5578	-55.021548	0.000152	1.515213	0.513368	-0.012099
1392	6.9550e-01	-15.5915	-55.348229	0.000818	8.182150	2.772188	-0.065336
1393	6.9600e-01	-15.6284	-55.432924	0.000212	2.121298	0.718715	-0.016939
1394	6.9650e-01	-15.6782	-55.388560	-0.000111	-1.111156	-0.376470	0.008873
1395	6.9700e-01	-15.7103	-55.735406	0.000869	8.687221	2.943310	-0.069369
1396	6.9750e-01	-15.7520	-55.682976	-0.000131	-1.313185	-0.444919	0.010486
1397	6.9800e-01	-15.8017	-56.183080	0.001253	12.525761	4.243843	-0.100021
1398	6.9850e-01	-15.8370	-56.191146	0.000020	0.202028	0.068449	-0.001613
1399	6.9900e-01	-15.8691	-56.158881	-0.000081	-0.808114	-0.273796	0.006453
1400	6.9950e-01	-15.9156	-56.400867	0.000606	6.060852	2.053472	-0.048397
1401	7.0000e-01	-15.9445	-56.328272	-0.000182	-1.818256	-0.616042	0.014519
1402	7.0050e-01	-15.9958	-56.320205	-0.000020	-0.202028	-0.068449	0.001613
1403	7.0100e-01	-16.0343	-56.755780	0.001091	10.909534	3.696250	-0.087115
1404	7.0150e-01	-16.0776	-56.763846	0.000020	0.202028	0.068449	-0.001613
1405	7.0200e-01	-16.1129	-56.892905	0.000323	3.232454	1.095185	-0.025812
1406	7.0250e-01	-16.1530	-56.949369	0.000141	1.414199	0.479144	-0.011293
1407	7.0300e-01	-16.1995	-56.913071	-0.000091	-0.909128	-0.308021	0.007260
1408	7.0350e-01	-16.2284	-57.106660	0.000485	4.848682	1.642778	-0.038718
1409	7.0400e-01	-16.2782	-57.340579	0.000586	5.858824	1.985023	-0.046784
1410	7.0450e-01	-16.3102	-57.429308	0.000222	2.222312	0.752940	-0.017746
1411	7.0500e-01	-16.3519	-57.405109	-0.000061	-0.606085	-0.205347	0.004840
1412	7.0550e-01	-16.3921	-57.594665	0.000475	4.747667	1.608553	-0.037911
1413	7.0600e-01	-16.4306	-57.933445	0.000849	8.485193	2.874861	-0.067756
1414	7.0650e-01	-16.4739	-57.836651	-0.000242	-2.424341	-0.821389	0.019359
1415	7.0700e-01	-16.5076	-58.026206	0.000475	4.747667	1.608553	-0.037911
1416	7.0750e-01	-16.5541	-58.239960	0.000535	5.353753	1.813900	-0.042751
1417	7.0800e-01	-16.5990	-58.348854	0.000273	2.727383	0.924063	-0.021779
1418	7.0850e-01	-16.6327	-58.312556	-0.000091	-0.909128	-0.308021	0.007260
1419	7.0900e-01	-16.6728	-58.344821	0.000081	0.808114	0.273796	-0.006453
1420	7.0950e-01	-16.7129	-58.421450	0.000192	1.919270	0.650266	-0.015326
1421	7.1000e-01	-16.7498	-58.320622	-0.000253	-2.525355	-0.855613	0.020165
1422	7.1050e-01	-16.7867	-58.820727	0.001253	12.525761	4.243843	-0.100021
1423	7.1100e-01	-16.8268	-58.978017	0.000394	3.939554	1.334757	-0.031458
1424	7.1150e-01	-16.8765	-58.796528	-0.000455	-4.545639	-1.540104	0.036298
1425	7.1200e-01	-16.9070	-59.139341	0.000859	8.586207	2.909086	-0.068563
1426	7.1250e-01	-16.9471	-59.304698	0.000414	4.141582	1.403206	-0.033071
1427	7.1300e-01	-16.9904	-59.171606	-0.000333	-3.333469	-1.129410	0.026618
1428	7.1350e-01	-17.0289	-59.244202	0.000182	1.818256	0.616042	-0.014519
1429	7.1400e-01	-17.0738	-59.127242	-0.000293	-2.929412	-0.992512	0.023392
1430	7.1450e-01	-17.1140	-59.522486	0.000990	9.899392	3.354005	-0.079049
1431	7.1500e-01	-17.1637	-59.377294	-0.000364	-3.636511	-1.232083	0.029038
1432	7.1550e-01	-17.1990	-59.784637	0.001020	10.202434	3.456678	-0.081469
1433	7.1600e-01	-17.2343	-59.909663	0.000313	3.131440	1.060961	-0.025005
1434	7.1650e-01	-17.2728	-60.034689	0.000313	3.131440	1.060961	-0.025005
1435	7.1700e-01	-17.3177	-60.111318	0.000192	1.919270	0.650266	-0.015326
1436	7.1750e-01	-17.3562	-59.974193	-0.000343	-3.434483	-1.163634	0.027425
1437	7.1800e-01	-17.3979	-60.357337	0.000960	9.596349	3.251331	-0.076629
1438	7.1850e-01	-17.4268	-60.567058	0.000525	5.252738	1.779676	-0.041944
1439	7.1900e-01	-17.4653	-60.796945	0.000576	5.757809	1.950799	-0.045977
1440	7.1950e-01	-17.5102	-60.530760	-0.000667	-6.666937	-2.258819	0.053237
1441	7.2000e-01	-17.5487	-60.800978	0.000677	6.767951	2.293044	-0.054044
1442	7.2050e-01	-17.5840	-60.825177	0.000061	0.606085	0.205347	-0.004840
1443	7.2100e-01	-17.6305	-61.038931	0.000535	5.353753	1.813900	-0.042751
1444	7.2150e-01	-17.6690	-61.079262	0.000101	1.010142	0.342245	-0.008066
1445	7.2200e-01	-17.7188	-61.365612	0.000717	7.172008	2.429942	-0.057270
1446	7.2250e-01	-17.7540	-61.236553	-0.000323	-3.232454	-1.095185	0.025812
1447	7.2300e-01	-17.7942	-61.518870	0.000707	7.070994	2.395718	-0.056463
1448	7.2350e-01	-17.8375	-61.426108	-0.000232	-2.323327	-0.787164	0.018552
1449	7.2400e-01	-17.8615	-61.506770	0.000202	2.020284	0.684491	-0.016132
1450	7.2450e-01	-17.9193	-61.599532	0.000232	2.323327	0.787164	-0.018552
1451	7.2500e-01	-17.9498	-61.833451	0.000586	5.858824	1.985023	-0.046784
1452	7.2550e-01	-17.9915	-62.051239	0.000545	5.454767	1.848125	-0.043557
1453	7.2600e-01	-18.0380	-62.127867	0.000192	1.919270	0.650266	-0.015326
1454	7.2650e-01	-18.0781	-62.115768	-0.000030	-0.303043	-0.102674	0.002420
1455	7.2700e-01	-18.1150	-62.264993	0.000374	3.737525	1.266308	-0.029845
1456	7.2750e-01	-18.1439	-62.341622	0.000192	1.919270	0.650266	-0.015326
1457	7.2800e-01	-18.1904	-62.636038	0.000737	7.374037	2.498391	-0.058883
1458	7.2850e-01	-18.2257	-62.978851	0.000859	8.586207	2.909086	-0.068563
1459	7.2900e-01	-18.2754	-62.599740	-0.000950	-9.495335	-3.217107	0.075822
1460	7.2950e-01	-18.3091	-62.922388	0.000808	8.081136	2.737963	-0.064530
1461	7.3000e-01	-18.3540	-62.656203	-0.000667	-6.666937	-2.258819	0.053237
1462	7.3050e-01	-18.3957	-63.168407	0.001283	12.828803	4.346516	-0.102441
1463	7.3100e-01	-18.4342	-63.394260	0.000566	5.656795	1.916574	-0.045171
1464	7.3150e-01	-18.4792	-63.781438	0.000970	9.697363	3.285556	-0.077435
1465	7.3200e-01	-18.5112	-63.370062	-0.001030	-10.303448	-3.490903	0.082275
1466	7.3250e-01	-18.5546	-63.422492	0.000131	1.313185	0.444919	-0.010486
1467	7.3300e-01	-18.5979	-63.749173	0.000818	8.182150	2.772188	-0.065336
1468	7.3350e-01	-18.6267	-63.914530	0.000414	4.141582	1.403206	-0.033071
1469	7.3400e-01	-18.6701	-64.031490	0.000293	2.929412	0.992512	-0.023392
1470	7.3450e-01	-18.7198	-63.886298	-0.000364	-3.636511	-1.232083	0.029038
1471	7.3500e-01	-18.7455	-64.160549	0.000687	6.868966	2.327269	-0.054850
1472	7.3550e-01	-18.8032	-64.317840	0.000394	3.939554	1.334757	-0.031458
1473	7.3600e-01	-18.8305	-64.289608	-0.000071	-0.707099	-0.239572	0.005646
1474	7.3650e-01	-18.8722	-64.422701	0.000333	3.333469	1.129410	-0.026618
1475	7.3700e-01	-18.9123	-64.406568	-0.000040	-0.404057	-0.136898	0.003226
1476	7.3750e-01	-18.9540	-64.475131	0.000172	1.717241	0.581817	-0.013713
1477	7.3800e-01	-18.9989	-64.648554	0.000434	4.343611	1.471655	-0.034685
1478	7.3850e-01	-19.0262	-64.914739	0.000667	6.666937	2.258819	-0.053237
1479	7.3900e-01	-19.0663	-65.072029	0.000394	3.939554	1.334757	-0.031458
1480	7.3950e-01	-19.1112	-65.080096	0.000020	0.202028	0.068449	-0.001613
1481	7.4000e-01	-19.1497	-65.314015	0.000586	5.858824	1.985023	-0.046784
1482	7.4050e-01	-19.1850	-65.301916	-0.000030	-0.303043	-0.102674	0.002420
1483	7.4100e-01	-19.2348	-65.576167	0.000687	6.868966	2.327269	-0.054850
1484	7.4150e-01	-19.2684	-65.535836	-0.000101	-1.010142	-0.342245	0.008066
1485	7.4200e-01	-19.3166	-65.939146	0.001010	10.101420	3.422454	-0.080662
1486	7.4250e-01	-19.3487	-65.547935	-0.000980	-9.798377	-3.319780	0.078242
1487	7.4300e-01	-19.3936	-65.838318	0.000727	7.273022	2.464167	-0.058077
1488	7.4350e-01	-19.4449	-65.886715	0.000121	1.212170	0.410694	-0.009679
1489	7.4400e-01	-19.4722	-66.064172	0.000444	4.444625	1.505880	-0.035491
1490	7.4450e-01	-19.5075	-66.285992	0.000556	5.555781	1.882350	-0.044364
1491	7.4500e-01	-19.5508	-66.273893	-0.000030	-0.303043	-0.102674	0.002420
1492	7.4550e-01	-19.5861	-66.294058	0.000051	0.505071	0.171123	-0.004033
1493	7.4600e-01	-19.6326	-66.511846	0.000545	5.454767	1.848125	-0.043557
1494	7.4650e-01	-19.6727	-66.415051	-0.000242	-2.424341	-0.821389	0.019359
1495	7.4700e-01	-19.7128	-66.733666	0.000798	7.980122	2.703738	-0.063723
1496	7.4750e-01	-19.7545	-66.971619	0.000596	5.959838	2.019248	-0.047591
1497	7.4800e-01	-19.7946	-67.032115	0.000152	1.515213	0.513368	-0.012099
1498	7.4850e-01	-19.8363	-67.213605	0.000455	4.545639	1.540104	-0.036298
1499	7.4900e-01	-19.8780	-67.072446	-0.000354	-3.535497	-1.197859	0.028232
1500	7.4950e-01	-19.9069	-67.145042	0.000182	1.818256	0.616042	-0.014519
1501	7.5000e-01	-19.9518	-67.447524	0.000758	7.576065	2.566840	-0.060496
1502	7.5050e-01	-19.9486	-67.322498	0.000313	3.131440	1.060961	0.025005
1503	7.5100e-01	-19.9342	-67.209572	0.000283	2.828398	0.958287	0.022585
1504	7.5150e-01	-19.8957	-67.274101	-0.000162	-1.616227	-0.547593	-0.012906
1505	7.5200e-01	-19.8540	-67.080513	0.000485	4.848682	1.642778	0.038718
1506	7.5250e-01	-19.8107	-67.084546	-0.000010	-0.101014	-0.034225	-0.000807
1507	7.5300e-01	-19.7706	-66.810295	0.000687	6.868966	2.327269	0.054850
1508	7.5350e-01	-19.7337	-67.020016	-0.000525	-5.252738	-1.779676	-0.041944
1509	7.5400e-01	-19.6952	-67.048248	-0.000071	-0.707099	-0.239572	-0.005646
1510	7.5450e-01	-19.6583	-66.737699	0.000778	7.778093	2.635289	0.062110
1511	7.5500e-01	-19.6182	-66.507813	0.000576	5.757809	1.950799	0.045977
1512	7.5550e-01	-19.5716	-66.475548	0.000081	0.808114	0.273796	0.006453
1513	7.5600e-01	-19.5315	-66.644938	-0.000424	-4.242596	-1.437431	-0.033878
1514	7.5650e-01	-19.4946	-66.640905	0.000010	0.101014	0.034225	0.000807
1515	7.5700e-01	-19.4497	-66.322290	0.000798	7.980122	2.703738	0.063723
1516	7.5750e-01	-19.4208	-66.386820	-0.000162	-1.616227	-0.547593	-0.012906
1517	7.5800e-01	-19.3839	-66.302124	0.000212	2.121298	0.718715	0.016939
1518	7.5850e-01	-19.3406	-65.749590	0.001384	13.838945	4.688762	0.110507
1519	7.5900e-01	-19.2941	-65.951245	-0.000505	-5.050710	-1.711227	-0.040331
1520	7.5950e-01	-19.2588	-65.846384	0.000263	2.626369	0.889838	0.020972
1521	7.6000e-01	-19.2171	-65.979477	-0.000333	-3.333469	-1.129410	-0.026618
1522	7.6050e-01	-19.1722	-65.616498	0.000909	9.091278	3.080208	0.072596
1523	7.6100e-01	-19.1401	-65.487439	0.000323	3.232454	1.095185	0.025812
1524	7.6150e-01	-19.0904	-65.664895	-0.000444	-4.444625	-1.505880	-0.035491
1525	7.6200e-01	-19.0631	-65.523736	0.000354	3.535497	1.197859	0.028232
1526	7.6250e-01	-19.0150	-65.370479	0.000384	3.838540	1.300532	0.030652
1527	7.6300e-01	-18.9781	-65.140592	0.000576	5.757809	1.950799	0.045977
1528	7.6350e-01	-18.9364	-65.120427	0.000051	0.505071	0.171123	0.004033
1529	7.6400e-01	-18.8930	-65.116393	0.000010	0.101014	0.034225	0.000807
1530	7.6450e-01	-18.8433	-65.209155	-0.000232	-2.323327	-0.787164	-0.018552
1531	7.6500e-01	-18.8160	-64.741315	0.001172	11.717647	3.970046	0.093568
1532	7.6550e-01	-18.7872	-64.906672	-0.000414	-4.141582	-1.403206	-0.033071
1533	7.6600e-01	-18.7390	-64.717117	0.000475	4.747667	1.608553	0.037911
1534	7.6650e-01	-18.7005	-64.600157	0.000293	2.929412	0.992512	0.023392
1535	7.6700e-01	-18.6540	-64.450932	0.000374	3.737525	1.266308	0.029845
1536	7.6750e-01	-18.6219	-64.467065	-0.000040	-0.404057	-0.136898	-0.003226
1537	7.6800e-01	-18.5802	-64.515462	-0.000121	-1.212170	-0.410694	-0.009679
1538	7.6850e-01	-18.5369	-64.446899	0.000172	1.717241	0.581817	0.013713
1539	7.6900e-01	-18.4968	-64.184748	0.000657	6.565923	2.224595	0.052430
1540	7.6950e-01	-18.4519	-64.188781	-0.000010	-0.101014	-0.034225	-0.000807
1541	7.7000e-01	-18.4134	-63.983093	0.000515	5.151724	1.745451	0.041138
1542	7.7050e-01	-18.3669	-63.999225	-0.000040	-0.404057	-0.136898	-0.003226
1543	7.7100e-01	-18.3428	-63.527353	0.001182	11.818661	4.004271	0.094375
1544	7.7150e-01	-18.2915	-63.793537	-0.000667	-6.666937	-2.258819	-0.053237
1545	7.7200e-01	-18.2514	-63.454757	0.000849	8.485193	2.874861	0.067756
1546	7.7250e-01	-18.2080	-63.547518	-0.000232	-2.323327	-0.787164	-0.018552
1547	7.7300e-01	-18.1695	-63.688677	-0.000354	-3.535497	-1.197859	-0.028232
1548	7.7350e-01	-18.1391	-63.478955	0.000525	5.252738	1.779676	0.041944
1549	7.7400e-01	-18.0941	-63.454757	0.000061	0.606085	0.205347	0.004840
1550	7.7450e-01	-18.0605	-63.091778	0.000909	9.091278	3.080208	0.072596
1551	7.7500e-01	-18.0187	-63.063546	0.000071	0.707099	0.239572	0.005646
1552	7.7550e-01	-17.9738	-62.926421	0.000343	3.434483	1.163634	0.027425
1553	7.7600e-01	-17.9401	-62.857858	0.000172	1.717241	0.581817	0.013713
1554	7.7650e-01	-17.8888	-62.688468	0.000424	4.242596	1.437431	0.033878
1555	7.7700e-01	-17.8631	-62.640071	0.000121	1.212170	0.410694	0.009679
1556	7.7750e-01	-17.8182	-62.349688	0.000727	7.273022	2.464167	0.058077
1557	7.7800e-01	-17.7749	-62.414217	-0.000162	-1.616227	-0.547593	-0.012906
1558	7.7850e-01	-17.7428	-62.607806	-0.000485	-4.848682	-1.642778	-0.038718
1559	7.7900e-01	-17.6915	-62.148033	0.001152	11.515619	3.901597	0.091955
1560	7.7950e-01	-17.6578	-61.893948	0.000636	6.363895	2.156146	0.050817
1561	7.8000e-01	-17.6193	-61.934279	-0.000101	-1.010142	-0.342245	-0.008066
1562	7.8050e-01	-17.5776	-62.152066	-0.000545	-5.454767	-1.848125	-0.043557
1563	7.8100e-01	-17.5391	-61.825385	0.000818	8.182150	2.772188	0.065336
1564	7.8150e-01	-17.4974	-61.785054	0.000101	1.010142	0.342245	0.008066
1565	7.8200e-01	-17.4653	-61.857650	-0.000182	-1.818256	-0.616042	-0.014519
1566	7.8250e-01	-17.4188	-61.579366	0.000697	6.969980	2.361493	0.055657
1567	7.8300e-01	-17.3803	-61.349479	0.000576	5.757809	1.950799	0.045977
1568	7.8350e-01	-17.3402	-61.208321	0.000354	3.535497	1.197859	0.028232
1569	7.8400e-01	-17.3017	-61.095394	0.000283	2.828398	0.958287	0.022585
1570	7.8450e-01	-17.2567	-61.127659	-0.000081	-0.808114	-0.273796	-0.006453
1571	7.8500e-01	-17.2118	-61.002633	0.000313	3.131440	1.060961	0.025005
1572	7.8550e-01	-17.1733	-61.240586	-0.000596	-5.959838	-2.019248	-0.047591
1573	7.8600e-01	-17.1332	-61.046997	0.000485	4.848682	1.642778	0.038718
1574	7.8650e-01	-17.0947	-60.756614	0.000727	7.273022	2.464167	0.058077
1575	7.8700e-01	-17.0610	-60.542860	0.000535	5.353753	1.813900	0.042751
1576	7.8750e-01	-17.0193	-60.583191	-0.000101	-1.010142	-0.342245	-0.008066
1577	7.8800e-01	-16.9760	-60.446065	0.000343	3.434483	1.163634	0.027425
1578	7.8850e-01	-16.9359	-60.659820	-0.000535	-5.353753	-1.813900	-0.042751
1579	7.8900e-01	-16.9038	-60.397668	0.000657	6.565923	2.224595	0.052430
1580	7.8950e-01	-16.8509	-60.353304	0.000111	1.111156	0.376470	0.008873
1581	7.9000e-01	-16.8204	-60.042755	0.000778	7.778093	2.635289	0.062110
1582	7.9050e-01	-16.7819	-59.772538	0.000677	6.767951	2.293044	0.054044
1583	7.9100e-01	-16.7321	-60.143583	-0.000929	-9.293306	-3.148657	-0.074209
1584	7.9150e-01	-16.6888	-59.829001	0.000788	7.879108	2.669514	0.062916
1585	7.9200e-01	-16.6519	-59.982259	-0.000384	-3.838540	-1.300532	-0.030652
1586	7.9250e-01	-16.6086	-59.788670	0.000485	4.848682	1.642778	0.038718
1587	7.9300e-01	-16.5749	-59.409559	0.000950	9.495335	3.217107	0.075822
1588	7.9350e-01	-16.5445	-59.256301	0.000384	3.838540	1.300532	0.030652
1589	7.9400e-01	-16.4915	-59.280500	-0.000061	-0.606085	-0.205347	-0.004840
1590	7.9450e-01	-16.4578	-59.308731	-0.000071	-0.707099	-0.239572	-0.005646
1591	7.9500e-01	-16.4065	-59.123209	0.000465	4.646653	1.574329	0.037105
1592	7.9550e-01	-16.3712	-59.030448	0.000232	2.323327	0.787164	0.018552
1593	7.9600e-01	-16.3279	-58.929620	0.000253	2.525355	0.855613	0.020165
1594	7.9650e-01	-16.2926	-58.586807	0.000859	8.586207	2.909086	0.068563
1595	7.9700e-01	-16.2605	-58.590840	-0.000010	-0.101014	-0.034225	-0.000807
1596	7.9750e-01	-16.2156	-58.473880	0.000293	2.929412	0.992512	0.023392
1597	7.9800e-01	-16.1675	-58.526310	-0.000131	-1.313185	-0.444919	-0.010486
1598	7.9850e-01	-16.1306	-58.276258	0.000626	6.262880	2.121921	0.050010
1599	7.9900e-01	-16.1001	-58.272225	0.000010	0.101014	0.034225	0.000807
1600	7.9950e-01	-16.0536	-58.163331	0.000273	2.727383	0.924063	0.021779
1601	8.0000e-01	-16.0135	-58.034272	0.000323	3.232454	1.095185	0.025812
1602	8.0050e-01	-15.9750	-57.860849	0.000434	4.343611	1.471655	0.034685
1603	8.0100e-01	-15.9413	-57.844717	0.000040	0.404057	0.136898	0.003226
1604	8.0150e-01	-15.8851	-57.743889	0.000253	2.525355	0.855613	0.020165
1605	8.0200e-01	-15.8594	-57.683393	0.000152	1.515213	0.513368	0.012099
1606	8.0250e-01	-15.8225	-57.598698	0.000212	2.121298	0.718715	0.016939
1607	8.0300e-01	-15.7824	-57.437374	0.000404	4.040568	1.368982	0.032265
1608	8.0350e-01	-15.7391	-57.445440	-0.000020	-0.202028	-0.068449	-0.001613
1609	8.0400e-01	-15.6974	-57.292182	0.000384	3.838540	1.300532	0.030652
1610	8.0450e-01	-15.6589	-57.094560	0.000495	4.949696	1.677002	0.039524
1611	8.0500e-01	-15.6060	-57.126825	-0.000081	-0.808114	-0.273796	-0.006453
1612	8.0550e-01	-15.5755	-57.013898	0.000283	2.828398	0.958287	0.022585
1613	8.0600e-01	-15.5354	-56.671085	0.000859	8.586207	2.909086	0.068563
1614	8.0650e-01	-15.5001	-56.433132	0.000596	5.959838	2.019248	0.047591
1615	8.0700e-01	-15.4600	-56.554125	-0.000303	-3.030426	-1.026736	-0.024199
1616	8.0750e-01	-15.4167	-56.461364	0.000232	2.323327	0.787164	0.018552
1617	8.0800e-01	-15.3686	-56.505728	-0.000111	-1.111156	-0.376470	-0.008873
1618	8.0850e-01	-15.3429	-56.449265	0.000141	1.414199	0.479144	0.011293
1619	8.0900e-01	-15.2948	-56.037889	0.001030	10.303448	3.490903	0.082275
1620	8.0950e-01	-15.2611	-56.074186	-0.000091	-0.909128	-0.308021	-0.007260
1621	8.1000e-01	-15.2129	-56.049988	0.000061	0.606085	0.205347	0.004840
1622	8.1050e-01	-15.1760	-55.933028	0.000293	2.929412	0.992512	0.023392
1623	8.1100e-01	-15.1440	-55.509553	0.001061	10.606491	3.593576	0.084695
1624	8.1150e-01	-15.0894	-55.767671	-0.000646	-6.464909	-2.190370	-0.051624
1625	8.1200e-01	-15.0573	-55.461155	0.000768	7.677079	2.601065	0.061303
1626	8.1250e-01	-15.0172	-55.445023	0.000040	0.404057	0.136898	0.003226
1627	8.1300e-01	-14.9755	-55.622479	-0.000444	-4.444625	-1.505880	-0.035491
1628	8.1350e-01	-14.9370	-55.223203	0.001000	10.000406	3.388229	0.079855
1629	8.1400e-01	-14.8985	-54.844091	0.000950	9.495335	3.217107	0.075822
1630	8.1450e-01	-14.8600	-54.912654	-0.000172	-1.717241	-0.581817	-0.013713
1631	8.1500e-01	-14.8119	-54.731165	0.000455	4.545639	1.540104	0.036298
1632	8.1550e-01	-14.7798	-54.856191	-0.000313	-3.131440	-1.060961	-0.025005
1633	8.1600e-01	-14.7381	-54.662602	0.000485	4.848682	1.642778	0.038718
1634	8.1650e-01	-14.6948	-54.610172	0.000131	1.313185	0.444919	0.010486
1635	8.1700e-01	-14.6563	-54.392384	0.000545	5.454767	1.848125	0.043557
1636	8.1750e-01	-14.6226	-54.065703	0.000818	8.182150	2.772188	0.065336
1637	8.1800e-01	-14.5745	-54.158465	-0.000232	-2.323327	-0.787164	-0.018552
1638	8.1850e-01	-14.5327	-53.864048	0.000737	7.374037	2.498391	0.058883
1639	8.1900e-01	-14.4894	-53.981008	-0.000293	-2.929412	-0.992512	-0.023392
1640	8.1950e-01	-14.4590	-53.976975	0.000010	0.101014	0.034225	0.000807
1641	8.2000e-01	-14.4188	-53.747089	0.000576	5.757809	1.950799	0.045977
1642	8.2050e-01	-14.3771	-53.694658	0.000131	1.313185	0.444919	0.010486
1643	8.2100e-01	-14.3354	-53.763221	-0.000172	-1.717241	-0.581817	-0.013713
1644	8.2150e-01	-14.2985	-53.509136	0.000636	6.363895	2.156146	0.050817
1645	8.2200e-01	-14.2697	-53.295381	0.000535	5.353753	1.813900	0.042751
1646	8.2250e-01	-14.2151	-53.246984	0.000121	1.212170	0.410694	0.009679
1647	8.2300e-01	-14.1670	-53.295381	-0.000121	-1.212170	-0.410694	-0.009679
1648	8.2350e-01	-14.1317	-53.125991	0.000424	4.242596	1.437431	0.033878
1649	8.2400e-01	-14.0916	-53.101793	0.000061	0.606085	0.205347	0.004840
1650	8.2450e-01	-14.0499	-52.980800	0.000303	3.030426	1.026736	0.024199
1651	8.2500e-01	-14.0146	-52.863840	0.000293	2.929412	0.992512	0.023392
1652	8.2550e-01	-13.9793	-52.714615	0.000374	3.737525	1.266308	0.029845
1653	8.2600e-01	-13.9296	-52.625887	0.000222	2.222312	0.752940	0.017746
1654	8.2650e-01	-13.8878	-52.654119	-0.000071	-0.707099	-0.239572	-0.005646
1655	8.2700e-01	-13.8445	-52.387934	0.000667	6.666937	2.258819	0.053237
1656	8.2750e-01	-13.8205	-52.198379	0.000475	4.747667	1.608553	0.037911
1657	8.2800e-01	-13.7772	-51.980591	0.000545	5.454767	1.848125	0.043557
1658	8.2850e-01	-13.7435	-51.895896	0.000212	2.121298	0.718715	0.016939
1659	8.2900e-01	-13.7050	-51.879764	0.000040	0.404057	0.136898	0.003226
1660	8.2950e-01	-13.6536	-51.855565	0.000061	0.606085	0.205347	0.004840
1661	8.3000e-01	-13.6183	-51.734572	0.000303	3.030426	1.026736	0.024199
1662	8.3050e-01	-13.5686	-51.379660	0.000889	8.889250	3.011759	0.070983
1663	8.3100e-01	-13.5301	-51.387726	-0.000020	-0.202028	-0.068449	-0.001613
1664	8.3150e-01	-13.4948	-51.222369	0.000414	4.141582	1.403206	0.033071
1665	8.3200e-01	-13.4563	-51.238501	-0.000040	-0.404057	-0.136898	-0.003226
1666	8.3250e-01	-13.4194	-51.359494	-0.000303	-3.030426	-1.026736	-0.024199
1667	8.3300e-01	-13.3681	-50.847291	0.001283	12.828803	4.346516	0.102441
1668	8.3350e-01	-13.3344	-50.734364	0.000283	2.828398	0.958287	0.022585
1669	8.3400e-01	-13.2991	-50.798893	-0.000162	-1.616227	-0.547593	-0.012906
1670	8.3450e-01	-13.2462	-50.798893	0.000000	0.000000	0.000000	0.000000
1671	8.3500e-01	-13.2125	-50.516577	0.000707	7.070994	2.395718	0.056463
1672	8.3550e-01	-13.1691	-50.407683	0.000273	2.727383	0.924063	0.021779
1673	8.3600e-01	-13.1371	-50.480279	-0.000182	-1.818256	-0.616042	-0.014519
1674	8.3650e-01	-13.1050	-50.153598	0.000818	8.182150	2.772188	0.065336
1675	8.3700e-01	-13.0569	-50.145531	0.000020	0.202028	0.068449	0.001613
1676	8.3750e-01	-13.0151	-50.089068	0.000141	1.414199	0.479144	0.011293
1677	8.3800e-01	-12.9718	-50.056803	0.000081	0.808114	0.273796	0.006453
1678	8.3850e-01	-12.9333	-49.758354	0.000748	7.475051	2.532616	0.059690
1679	8.3900e-01	-12.8884	-49.544600	0.000535	5.353753	1.813900	0.042751
1680	8.3950e-01	-12.8515	-49.467971	0.000192	1.919270	0.650266	0.015326
1681	8.4000e-01	-12.8162	-49.359077	0.000273	2.727383	0.924063	0.021779
1682	8.4050e-01	-12.7697	-49.193720	0.000414	4.141582	1.403206	0.033071
1683	8.4100e-01	-12.7264	-49.189687	0.000010	0.101014	0.034225	0.000807
1684	8.4150e-01	-12.6895	-49.201786	-0.000030	-0.303043	-0.102674	-0.002420
1685	8.4200e-01	-12.6558	-48.992065	0.000525	5.252738	1.779676	0.041944
1686	8.4250e-01	-12.6157	-48.677484	0.000788	7.879108	2.669514	0.062916
1687	8.4300e-01	-12.5724	-49.012231	-0.000838	-8.384179	-2.840637	-0.066949
1688	8.4350e-01	-12.5387	-48.633119	0.000950	9.495335	3.217107	0.075822
1689	8.4400e-01	-12.5002	-48.782344	-0.000374	-3.737525	-1.266308	-0.029845
1690	8.4450e-01	-12.4537	-48.330637	0.001131	11.313590	3.833148	0.090341
1691	8.4500e-01	-12.4136	-48.310472	0.000051	0.505071	0.171123	0.004033
1692	8.4550e-01	-12.3783	-48.137048	0.000434	4.343611	1.471655	0.034685
1693	8.4600e-01	-12.3430	-47.770036	0.000919	9.192292	3.114433	0.073402
1694	8.4650e-01	-12.2932	-48.068486	-0.000748	-7.475051	-2.532616	-0.059690
1695	8.4700e-01	-12.2612	-47.995890	0.000182	1.818256	0.616042	0.014519
1696	8.4750e-01	-12.2114	-47.749871	0.000616	6.161866	2.087697	0.049204
1697	8.4800e-01	-12.1729	-47.725672	0.000061	0.606085	0.205347	0.004840
1698	8.4850e-01	-12.1360	-47.544183	0.000455	4.545639	1.540104	0.036298
1699	8.4900e-01	-12.1039	-47.407058	0.000343	3.434483	1.163634	0.027425
1700	8.4950e-01	-12.0574	-47.253800	0.000384	3.838540	1.300532	0.030652
1701	8.5000e-01	-12.0269	-47.124741	0.000323	3.232454	1.095185	0.025812
1702	8.5050e-01	-11.9756	-46.955350	0.000424	4.242596	1.437431	0.033878
1703	8.5100e-01	-11.9435	-46.915019	0.000101	1.010142	0.342245	0.008066
1704	8.5150e-01	-11.8970	-47.003748	-0.000222	-2.222312	-0.752940	-0.017746
1705	8.5200e-01	-11.8729	-46.789993	0.000535	5.353753	1.813900	0.042751
1706	8.5250e-01	-11.8200	-46.628669	0.000404	4.040568	1.368982	0.032265
1707	8.5300e-01	-11.7751	-46.596405	0.000081	0.808114	0.273796	0.006453
1708	8.5350e-01	-11.7318	-46.293922	0.000758	7.576065	2.566840	0.060496
1709	8.5400e-01	-11.6965	-46.172929	0.000303	3.030426	1.026736	0.024199
1710	8.5450e-01	-11.6564	-46.148731	0.000061	0.606085	0.205347	0.004840
1711	8.5500e-01	-11.6162	-45.866414	0.000707	7.070994	2.395718	0.056463
1712	8.5550e-01	-11.5745	-45.914811	-0.000121	-1.212170	-0.410694	-0.009679
1713	8.5600e-01	-11.5328	-45.834149	0.000202	2.020284	0.684491	0.016132
1714	8.5650e-01	-11.5040	-45.555865	0.000697	6.969980	2.361493	0.055657
1715	8.5700e-01	-11.4590	-45.330012	0.000566	5.656795	1.916574	0.045171
1716	8.5750e-01	-11.4109	-45.515534	-0.000465	-4.646653	-1.574329	-0.037105
1717	8.5800e-01	-11.3740	-45.402608	0.000283	2.828398	0.958287	0.022585
1718	8.5850e-01	-11.3323	-45.055761	0.000869	8.687221	2.943310	0.069369
1719	8.5900e-01	-11.2890	-44.934768	0.000303	3.030426	1.026736	0.024199
1720	8.5950e-01	-11.2521	-45.015430	-0.000202	-2.020284	-0.684491	-0.016132
1721	8.6000e-01	-11.2248	-44.975099	0.000101	1.010142	0.342245	0.008066
1722	8.6050e-01	-11.1847	-44.636319	0.000849	8.485193	2.874861	0.067756
1723	8.6100e-01	-11.1414	-44.624219	0.000030	0.303043	0.102674	0.002420
1724	8.6150e-01	-11.0933	-44.370134	0.000636	6.363895	2.156146	0.050817
1725	8.6200e-01	-11.0516	-44.595988	-0.000566	-5.656795	-1.916574	-0.045171
1726	8.6250e-01	-11.0227	-44.317704	0.000697	6.969980	2.361493	0.055657
1727	8.6300e-01	-10.9762	-44.362068	-0.000111	-1.111156	-0.376470	-0.008873
1728	8.6350e-01	-10.9441	-44.180579	0.000455	4.545639	1.540104	0.036298
1729	8.6400e-01	-10.8895	-44.192678	-0.000030	-0.303043	-0.102674	-0.002420
1730	8.6450e-01	-10.8591	-44.003122	0.000475	4.747667	1.608553	0.037911
1731	8.6500e-01	-10.8286	-43.628044	0.000939	9.394321	3.182882	0.075016
1732	8.6550e-01	-10.7820	-43.462687	0.000414	4.141582	1.403206	0.033071
1733	8.6600e-01	-10.7419	-43.716772	-0.000636	-6.363895	-2.156146	-0.050817
1734	8.6650e-01	-10.6922	-43.507051	0.000525	5.252738	1.779676	0.041944
1735	8.6700e-01	-10.6505	-43.357827	0.000374	3.737525	1.266308	0.029845
1736	8.6750e-01	-10.6232	-43.055344	0.000758	7.576065	2.566840	0.060496
1737	8.6800e-01	-10.5767	-42.962583	0.000232	2.323327	0.787164	0.018552
1738	8.6850e-01	-10.5318	-42.857722	0.000263	2.626369	0.889838	0.020972
1739	8.6900e-01	-10.5013	-42.809325	0.000121	1.212170	0.410694	0.009679
1740	8.6950e-01	-10.4500	-42.684299	0.000313	3.131440	1.060961	0.025005
1741	8.7000e-01	-10.4179	-42.341486	0.000859	8.586207	2.909086	0.068563
1742	8.7050e-01	-10.3810	-42.474578	-0.000333	-3.333469	-1.129410	-0.026618
1743	8.7100e-01	-10.3329	-42.514909	-0.000101	-1.010142	-0.342245	-0.008066
1744	8.7150e-01	-10.2992	-42.228559	0.000717	7.172008	2.429942	0.057270
1745	8.7200e-01	-10.2575	-42.135798	0.000232	2.323327	0.787164	0.018552
1746	8.7250e-01	-10.2238	-42.006738	0.000323	3.232454	1.095185	0.025812
1747	8.7300e-01	-10.1740	-42.034970	-0.000071	-0.707099	-0.239572	-0.005646
1748	8.7350e-01	-10.1388	-41.873646	0.000404	4.040568	1.368982	0.032265
1749	8.7400e-01	-10.0954	-41.736521	0.000343	3.434483	1.163634	0.027425
1750	8.7450e-01	-10.0569	-41.405807	0.000828	8.283164	2.806412	0.066143
1751	8.7500e-01	-10.0168	-41.256582	0.000374	3.737525	1.266308	0.029845
1752	8.7550e-01	-9.9880	-41.131556	0.000313	3.131440	1.060961	0.025005
1753	8.7600e-01	-9.9318	-41.018629	0.000283	2.828398	0.958287	0.022585
1754	8.7650e-01	-9.8981	-41.002497	0.000040	0.404057	0.136898	0.003226
1755	8.7700e-01	-9.8596	-41.014596	-0.000030	-0.303043	-0.102674	-0.002420
1756	8.7750e-01	-9.8163	-40.623386	0.000980	9.798377	3.319780	0.078242
1757	8.7800e-01	-9.7730	-40.659684	-0.000091	-0.909128	-0.308021	-0.007260
1758	8.7850e-01	-9.7377	-40.526591	0.000333	3.333469	1.129410	0.026618
1759	8.7900e-01	-9.7008	-40.421731	0.000263	2.626369	0.889838	0.020972
1760	8.7950e-01	-9.6543	-40.095050	0.000818	8.182150	2.772188	0.065336
1761	8.8000e-01	-9.6190	-40.006322	0.000222	2.222312	0.752940	0.017746
1762	8.8050e-01	-9.5821	-40.006322	0.000000	0.000000	0.000000	0.000000
1763	8.8100e-01	-9.5372	-39.820799	0.000465	4.646653	1.574329	0.037105
1764	8.8150e-01	-9.4938	-39.748203	0.000182	1.818256	0.616042	0.014519
1765	8.8200e-01	-9.4698	-39.562681	0.000465	4.646653	1.574329	0.037105
1766	8.8250e-01	-9.4168	-39.526383	0.000091	0.909128	0.308021	0.007260
1767	8.8300e-01	-9.3832	-39.401357	0.000313	3.131440	1.060961	0.025005
1768	8.8350e-01	-9.3366	-39.429588	-0.000071	-0.707099	-0.239572	-0.005646
1769	8.8400e-01	-9.3013	-39.155338	0.000687	6.868966	2.327269	0.054850
1770	8.8450e-01	-9.2580	-38.925451	0.000576	5.757809	1.950799	0.045977
1771	8.8500e-01	-9.2179	-38.784293	0.000354	3.535497	1.197859	0.028232
1772	8.8550e-01	-9.1698	-38.639101	0.000364	3.636511	1.232083	0.029038
1773	8.8600e-01	-9.1393	-38.723796	-0.000212	-2.121298	-0.718715	-0.016939
1774	8.8650e-01	-9.1024	-38.522141	0.000505	5.050710	1.711227	0.040331
1775	8.8700e-01	-9.0479	-38.425347	0.000242	2.424341	0.821389	0.019359
1776	8.8750e-01	-9.0110	-38.264023	0.000404	4.040568	1.368982	0.032265
1777	8.8800e-01	-8.9805	-38.183361	0.000202	2.020284	0.684491	0.016132
1778	8.8850e-01	-8.9388	-38.078500	0.000263	2.626369	0.889838	0.020972
1779	8.8900e-01	-8.9019	-37.618727	0.001152	11.515619	3.901597	0.091955
1780	8.8950e-01	-8.8570	-37.687290	-0.000172	-1.717241	-0.581817	-0.013713
1781	8.9000e-01	-8.8153	-38.009938	-0.000808	-8.081136	-2.737963	-0.064530
1782	8.9050e-01	-8.7752	-37.517900	0.001232	12.323732	4.175394	0.098408
1783	8.9100e-01	-8.7383	-37.251715	0.000667	6.666937	2.258819	0.053237
1784	8.9150e-01	-8.6933	-37.066193	0.000465	4.646653	1.574329	0.037105
1785	8.9200e-01	-8.6548	-37.098457	-0.000081	-0.808114	-0.273796	-0.006453
1786	8.9250e-01	-8.6195	-36.949233	0.000374	3.737525	1.266308	0.029845
1787	8.9300e-01	-8.5794	-36.929067	0.000051	0.505071	0.171123	0.004033
1788	8.9350e-01	-8.5329	-36.795975	0.000333	3.333469	1.129410	0.026618
1789	8.9400e-01	-8.4960	-36.743545	0.000131	1.313185	0.444919	0.010486
1790	8.9450e-01	-8.4623	-36.400731	0.000859	8.586207	2.909086	0.068563
1791	8.9500e-01	-8.4206	-35.973223	0.001071	10.707505	3.627801	0.085502
1792	8.9550e-01	-8.3741	-36.299904	-0.000818	-8.182150	-2.772188	-0.065336
1793	8.9600e-01	-8.3372	-36.364434	-0.000162	-1.616227	-0.547593	-0.012906
1794	8.9650e-01	-8.2987	-36.227308	0.000343	3.434483	1.163634	0.027425
1795	8.9700e-01	-8.2554	-36.098249	0.000323	3.232454	1.095185	0.025812
1796	8.9750e-01	-8.2105	-35.872396	0.000566	5.656795	1.916574	0.045171
1797	8.9800e-01	-8.1816	-35.622343	0.000626	6.262880	2.121921	0.050010
1798	8.9850e-01	-8.1351	-35.493284	0.000323	3.232454	1.095185	0.025812
1799	8.9900e-01	-8.0918	-35.489251	0.000010	0.101014	0.034225	0.000807
1800	8.9950e-01	-8.0484	-35.166603	0.000808	8.081136	2.737963	0.064530
1801	9.0000e-01	-8.0164	-35.029478	0.000343	3.434483	1.163634	0.027425
1802	9.0050e-01	-7.9762	-35.077875	-0.000121	-1.212170	-0.410694	-0.009679
1803	9.0100e-01	-7.9393	-34.847988	0.000576	5.757809	1.950799	0.045977
1804	9.0150e-01	-7.8880	-34.718929	0.000323	3.232454	1.095185	0.025812
1805	9.0200e-01	-7.8623	-34.686665	0.000081	0.808114	0.273796	0.006453
1806	9.0250e-01	-7.8190	-34.642300	0.000111	1.111156	0.376470	0.008873
1807	9.0300e-01	-7.7693	-34.335785	0.000768	7.677079	2.601065	0.061303
1808	9.0350e-01	-7.7388	-34.081700	0.000636	6.363895	2.156146	0.050817
1809	9.0400e-01	-7.6923	-34.323686	-0.000606	-6.060852	-2.053472	-0.048397
1810	9.0450e-01	-7.6634	-33.944574	0.000950	9.495335	3.217107	0.075822
1811	9.0500e-01	-7.6169	-33.867946	0.000192	1.919270	0.650266	0.015326
1812	9.0550e-01	-7.5768	-33.549331	0.000798	7.980122	2.703738	0.063723
1813	9.0600e-01	-7.5287	-33.662257	-0.000283	-2.828398	-0.958287	-0.022585
1814	9.0650e-01	-7.4998	-33.492867	0.000424	4.242596	1.437431	0.033878
1815	9.0700e-01	-7.4581	-33.359775	0.000333	3.333469	1.129410	0.026618
1816	9.0750e-01	-7.4196	-33.178286	0.000455	4.545639	1.540104	0.036298
1817	9.0800e-01	-7.3666	-33.186352	-0.000020	-0.202028	-0.068449	-0.001613
1818	9.0850e-01	-7.3281	-33.146021	0.000101	1.010142	0.342245	0.008066
1819	9.0900e-01	-7.3041	-33.016962	0.000323	3.232454	1.095185	0.025812
1820	9.0950e-01	-7.2575	-32.783042	0.000586	5.858824	1.985023	0.046784
1821	9.1000e-01	-7.2110	-32.613652	0.000424	4.242596	1.437431	0.033878
1822	9.1050e-01	-7.1741	-32.411997	0.000505	5.050710	1.711227	0.040331
1823	9.1100e-01	-7.1324	-32.165978	0.000616	6.161866	2.087697	0.049204
1824	9.1150e-01	-7.1003	-32.004654	0.000404	4.040568	1.368982	0.032265
1825	9.1200e-01	-7.0682	-32.057084	-0.000131	-1.313185	-0.444919	-0.010486
1826	9.1250e-01	-7.0169	-31.932058	0.000313	3.131440	1.060961	0.025005
1827	9.1300e-01	-6.9800	-32.089349	-0.000394	-3.939554	-1.334757	-0.031458
1828	9.1350e-01	-6.9319	-31.835264	0.000636	6.363895	2.156146	0.050817
1829	9.1400e-01	-6.8886	-31.383557	0.001131	11.313590	3.833148	0.090341
1830	9.1450e-01	-6.8549	-31.355325	0.000071	0.707099	0.239572	0.005646
1831	9.1500e-01	-6.8100	-31.435987	-0.000202	-2.020284	-0.684491	-0.016132
1832	9.1550e-01	-6.7779	-31.206100	0.000576	5.757809	1.950799	0.045977
1833	9.1600e-01	-6.7394	-30.972181	0.000586	5.858824	1.985023	0.046784
1834	9.1650e-01	-6.6929	-30.802791	0.000424	4.242596	1.437431	0.033878
1835	9.1700e-01	-6.6479	-30.831022	-0.000071	-0.707099	-0.239572	-0.005646
1836	9.1750e-01	-6.6223	-30.730195	0.000253	2.525355	0.855613	0.020165
1837	9.1800e-01	-6.5902	-30.556772	0.000434	4.343611	1.471655	0.034685
1838	9.1850e-01	-6.5324	-30.298653	0.000646	6.464909	2.190370	0.051624
1839	9.1900e-01	-6.4955	-30.387381	-0.000222	-2.222312	-0.752940	-0.017746
1840	9.1950e-01	-6.4586	-29.947774	0.001101	11.010548	3.730475	0.087922
1841	9.2000e-01	-6.4169	-29.931641	0.000040	0.404057	0.136898	0.003226
1842	9.2050e-01	-6.3736	-30.060700	-0.000323	-3.232454	-1.095185	-0.025812
1843	9.2100e-01	-6.3335	-29.677556	0.000960	9.596349	3.251331	0.076629
1844	9.2150e-01	-6.2950	-29.387173	0.000727	7.273022	2.464167	0.058077
1845	9.2200e-01	-6.2629	-29.463802	-0.000192	-1.919270	-0.650266	-0.015326
1846	9.2250e-01	-6.2100	-29.508166	-0.000111	-1.111156	-0.376470	-0.008873
1847	9.2300e-01	-6.1779	-29.096790	0.001030	10.303448	3.490903	0.082275
1848	9.2350e-01	-6.1378	-29.076624	0.000051	0.505071	0.171123	0.004033
1849	9.2400e-01	-6.0961	-28.903201	0.000434	4.343611	1.471655	0.034685
1850	9.2450e-01	-6.0592	-28.733811	0.000424	4.242596	1.437431	0.033878
1851	9.2500e-01	-6.0239	-28.520057	0.000535	5.353753	1.813900	0.042751
1852	9.2550e-01	-5.9838	-28.689447	-0.000424	-4.242596	-1.437431	-0.033878
1853	9.2600e-01	-5.9389	-28.608785	0.000202	2.020284	0.684491	0.016132
1854	9.2650e-01	-5.9004	-28.499891	0.000273	2.727383	0.924063	0.021779
1855	9.2700e-01	-5.8651	-28.136912	0.000909	9.091278	3.080208	0.072596
1856	9.2750e-01	-5.8234	-28.157078	-0.000051	-0.505071	-0.171123	-0.004033
1857	9.2800e-01	-5.7801	-28.201442	-0.000111	-1.111156	-0.376470	-0.008873
1858	9.2850e-01	-5.7399	-27.915092	0.000717	7.172008	2.429942	0.057270
1859	9.2900e-01	-5.6950	-27.697305	0.000545	5.454767	1.848125	0.043557
1860	9.2950e-01	-5.6597	-27.370624	0.000818	8.182150	2.772188	0.065336
1861	9.3000e-01	-5.6164	-27.435153	-0.000162	-1.616227	-0.547593	-0.012906
1862	9.3050e-01	-5.5795	-27.160903	0.000687	6.868966	2.327269	0.054850
1863	9.3100e-01	-5.5394	-26.906817	0.000636	6.363895	2.156146	0.050817
1864	9.3150e-01	-5.5009	-26.850354	0.000141	1.414199	0.479144	0.011293
1865	9.3200e-01	-5.4528	-26.826155	0.000061	0.606085	0.205347	0.004840
1866	9.3250e-01	-5.4175	-26.793891	0.000081	0.808114	0.273796	0.006453
1867	9.3300e-01	-5.3774	-26.822122	-0.000071	-0.707099	-0.239572	-0.005646
1868	9.3350e-01	-5.3389	-26.410746	0.001030	10.303448	3.490903	0.082275
1869	9.3400e-01	-5.3052	-26.301853	0.000273	2.727383	0.924063	0.021779
1870	9.3450e-01	-5.2571	-26.253455	0.000121	1.212170	0.410694	0.009679
1871	9.3500e-01	-5.2186	-25.983238	0.000677	6.767951	2.293044	0.054044
1872	9.3550e-01	-5.1785	-25.878377	0.000263	2.626369	0.889838	0.020972
1873	9.3600e-01	-5.1384	-25.874344	0.000010	0.101014	0.034225	0.000807
1874	9.3650e-01	-5.0918	-25.725119	0.000374	3.737525	1.266308	0.029845
1875	9.3700e-01	-5.0646	-25.612193	0.000283	2.828398	0.958287	0.022585
1876	9.3750e-01	-5.0132	-25.337942	0.000687	6.868966	2.327269	0.054850
1877	9.3800e-01	-4.9811	-25.083857	0.000636	6.363895	2.156146	0.050817
1878	9.3850e-01	-4.9314	-25.172585	-0.000222	-2.222312	-0.752940	-0.017746
1879	9.3900e-01	-4.8977	-24.829772	0.000859	8.586207	2.909086	0.068563
1880	9.3950e-01	-4.8576	-24.793474	0.000091	0.909128	0.308021	0.007260
1881	9.4000e-01	-4.8095	-24.870103	-0.000192	-1.919270	-0.650266	-0.015326
1882	9.4050e-01	-4.7758	-24.676514	0.000485	4.848682	1.642778	0.038718
1883	9.4100e-01	-4.7405	-24.495024	0.000455	4.545639	1.540104	0.036298
1884	9.4150e-01	-4.6972	-24.265138	0.000576	5.757809	1.950799	0.045977
1885	9.4200e-01	-4.6603	-24.208674	0.000141	1.414199	0.479144	0.011293
1886	9.4250e-01	-4.6218	-24.099781	0.000273	2.727383	0.924063	0.021779
1887	9.4300e-01	-4.5769	-23.821497	0.000697	6.969980	2.361493	0.055657
1888	9.4350e-01	-4.5400	-23.825530	-0.000010	-0.101014	-0.034225	-0.000807
1889	9.4400e-01	-4.4983	-23.623875	0.000505	5.050710	1.711227	0.040331
1890	9.4450e-01	-4.4582	-23.248797	0.000939	9.394321	3.182882	0.075016
1891	9.4500e-01	-4.4100	-23.353657	-0.000263	-2.626369	-0.889838	-0.020972
1892	9.4550e-01	-4.3731	-23.353657	0.000000	0.000000	0.000000	0.000000
1893	9.4600e-01	-4.3427	-22.942281	0.001030	10.303448	3.490903	0.082275
1894	9.4650e-01	-4.3009	-22.926149	0.000040	0.404057	0.136898	0.003226
1895	9.4700e-01	-4.2544	-22.889851	0.000091	0.909128	0.308021	0.007260
1896	9.4750e-01	-4.2207	-22.672064	0.000545	5.454767	1.848125	0.043557
1897	9.4800e-01	-4.1710	-22.470409	0.000505	5.050710	1.711227	0.040331
1898	9.4850e-01	-4.1421	-22.317151	0.000384	3.838540	1.300532	0.030652
1899	9.4900e-01	-4.0940	-22.131629	0.000465	4.646653	1.574329	0.037105
1900	9.4950e-01	-4.0571	-22.111463	0.000051	0.505071	0.171123	0.004033
1901	9.5000e-01	-4.0154	-21.913841	0.000495	4.949696	1.677002	0.039524
1902	9.5050e-01	-3.9769	-21.732352	0.000455	4.545639	1.540104	0.036298
1903	9.5100e-01	-3.9448	-21.683955	0.000121	1.212170	0.410694	0.009679
1904	9.5150e-01	-3.8935	-21.651690	0.000081	0.808114	0.273796	0.006453
1905	9.5200e-01	-3.8646	-21.312910	0.000849	8.485193	2.874861	0.067756
1906	9.5250e-01	-3.8165	-21.220148	0.000232	2.323327	0.787164	0.018552
1907	9.5300e-01	-3.7683	-21.212082	0.000020	0.202028	0.068449	0.001613
1908	9.5350e-01	-3.7427	-20.832971	0.000950	9.495335	3.217107	0.075822
1909	9.5400e-01	-3.7058	-20.824905	0.000020	0.202028	0.068449	0.001613
1910	9.5450e-01	-3.6528	-20.703912	0.000303	3.030426	1.026736	0.024199
1911	9.5500e-01	-3.6175	-20.720044	-0.000040	-0.404057	-0.136898	-0.003226
1912	9.5550e-01	-3.5887	-20.429661	0.000727	7.273022	2.464167	0.058077
1913	9.5600e-01	-3.5357	-20.026351	0.001010	10.101420	3.422454	0.080662
1914	9.5650e-01	-3.5020	-20.240105	-0.000535	-5.353753	-1.813900	-0.042751
1915	9.5700e-01	-3.4603	-20.320767	-0.000202	-2.020284	-0.684491	-0.016132
1916	9.5750e-01	-3.4250	-19.804531	0.001293	12.929818	4.380741	0.103247
1917	9.5800e-01	-3.3737	-19.776299	0.000071	0.707099	0.239572	0.005646
1918	9.5850e-01	-3.3384	-19.469784	0.000768	7.677079	2.601065	0.061303
1919	9.5900e-01	-3.2999	-19.332658	0.000343	3.434483	1.163634	0.027425
1920	9.5950e-01	-3.2566	-19.110838	0.000556	5.555781	1.882350	0.044364
1921	9.6000e-01	-3.2197	-18.860786	0.000626	6.262880	2.121921	0.050010
1922	9.6050e-01	-3.1764	-18.961613	-0.000253	-2.525355	-0.855613	-0.020165
1923	9.6100e-01	-3.1331	-18.949514	0.000030	0.303043	0.102674	0.002420
1924	9.6150e-01	-3.0978	-18.513939	0.001091	10.909534	3.696250	0.087115
1925	9.6200e-01	-3.0529	-18.497807	0.000040	0.404057	0.136898	0.003226
1926	9.6250e-01	-3.0192	-18.417145	0.000202	2.020284	0.684491	0.016132
1927	9.6300e-01	-2.9775	-18.352615	0.000162	1.616227	0.547593	0.012906
1928	9.6350e-01	-2.9374	-18.082398	0.000677	6.767951	2.293044	0.054044
1929	9.6400e-01	-2.8940	-18.038033	0.000111	1.111156	0.376470	0.008873
1930	9.6450e-01	-2.8668	-18.009802	0.000071	0.707099	0.239572	0.005646
1931	9.6500e-01	-2.8186	-17.755717	0.000636	6.363895	2.156146	0.050817
1932	9.6550e-01	-2.7866	-17.505664	0.000626	6.262880	2.121921	0.050010
1933	9.6600e-01	-2.7416	-17.400804	0.000263	2.626369	0.889838	0.020972
1934	9.6650e-01	-2.6903	-17.259645	0.000354	3.535497	1.197859	0.028232
1935	9.6700e-01	-2.6678	-16.924898	0.000838	8.384179	2.840637	0.066949
1936	9.6750e-01	-2.6133	-17.191083	-0.000667	-6.666937	-2.258819	-0.053237
1937	9.6800e-01	-2.5796	-17.126553	0.000162	1.616227	0.547593	0.012906
1938	9.6850e-01	-2.5363	-16.932964	0.000485	4.848682	1.642778	0.038718
1939	9.6900e-01	-2.5026	-16.695012	0.000596	5.959838	2.019248	0.047591
1940	9.6950e-01	-2.4625	-16.207007	0.001222	12.222718	4.141169	0.097601
1941	9.7000e-01	-2.4144	-16.517555	-0.000778	-7.778093	-2.635289	-0.062110
1942	9.7050e-01	-2.3711	-16.138444	0.000950	9.495335	3.217107	0.075822
1943	9.7100e-01	-2.3502	-16.077948	0.000152	1.515213	0.513368	0.012099
1944	9.7150e-01	-2.3005	-15.844028	0.000586	5.858824	1.985023	0.046784
1945	9.7200e-01	-2.2588	-15.904524	-0.000152	-1.515213	-0.513368	-0.012099
1946	9.7250e-01	-2.2251	-15.493148	0.001030	10.303448	3.490903	0.082275
1947	9.7300e-01	-2.1753	-15.263262	0.000576	5.757809	1.950799	0.045977
1948	9.7350e-01	-2.1433	-15.291493	-0.000071	-0.707099	-0.239572	-0.005646
1949	9.7400e-01	-2.0903	-15.392321	-0.000253	-2.525355	-0.855613	-0.020165
1950	9.7450e-01	-2.0598	-14.952713	0.001101	11.010548	3.730475	0.087922
1951	9.7500e-01	-2.0149	-14.702661	0.000626	6.262880	2.121921	0.050010
1952	9.7550e-01	-1.9812	-14.533271	0.000424	4.242596	1.437431	0.033878
1953	9.7600e-01	-1.9299	-14.541337	-0.000020	-0.202028	-0.068449	-0.001613
1954	9.7650e-01	-1.8930	-14.468741	0.000182	1.818256	0.616042	0.014519
1955	9.7700e-01	-1.8529	-14.085597	0.000960	9.596349	3.251331	0.076629
1956	9.7750e-01	-1.8112	-14.069464	0.000040	0.404057	0.136898	0.003226
1957	9.7800e-01	-1.7727	-14.057365	0.000030	0.303043	0.102674	0.002420
1958	9.7850e-01	-1.7390	-13.674221	0.000960	9.596349	3.251331	0.076629
1959	9.7900e-01	-1.7005	-13.569360	0.000263	2.626369	0.889838	0.020972
1960	9.7950e-01	-1.6588	-13.690353	-0.000303	-3.030426	-1.026736	-0.024199
1961	9.8000e-01	-1.6139	-13.408036	0.000707	7.070994	2.395718	0.056463
1962	9.8050e-01	-1.5754	-13.412069	-0.000010	-0.101014	-0.034225	-0.000807
1963	9.8100e-01	-1.5449	-13.198315	0.000535	5.353753	1.813900	0.042751
1964	9.8150e-01	-1.5048	-13.036991	0.000404	4.040568	1.368982	0.032265
1965	9.8200e-01	-1.4486	-12.920031	0.000293	2.929412	0.992512	0.023392
1966	9.8250e-01	-1.4197	-12.686112	0.000586	5.858824	1.985023	0.046784
1967	9.8300e-01	-1.3716	-12.544953	0.000354	3.535497	1.197859	0.028232
1968	9.8350e-01	-1.3363	-12.302967	0.000606	6.060852	2.053472	0.048397
1969	9.8400e-01	-1.2914	-12.089213	0.000535	5.353753	1.813900	0.042751
1970	9.8450e-01	-1.2561	-12.165842	-0.000192	-1.919270	-0.650266	-0.015326
1971	9.8500e-01	-1.2176	-12.266669	-0.000253	-2.525355	-0.855613	-0.020165
1972	9.8550e-01	-1.1775	-11.883525	0.000960	9.596349	3.251331	0.076629
1973	9.8600e-01	-1.1422	-11.851260	0.000081	0.808114	0.273796	0.006453
1974	9.8650e-01	-1.0989	-11.536679	0.000788	7.879108	2.669514	0.062916
1975	9.8700e-01	-1.0716	-11.322924	0.000535	5.353753	1.813900	0.042751
1976	9.8750e-01	-1.0187	-10.927681	0.000990	9.899392	3.354005	0.079049
1977	9.8800e-01	-0.9834	-11.064806	-0.000343	-3.434483	-1.163634	-0.027425
1978	9.8850e-01	-0.9369	-10.972045	0.000232	2.323327	0.787164	0.018552
1979	9.8900e-01	-0.8952	-10.943813	0.000071	0.707099	0.239572	0.005646
1980	9.8950e-01	-0.8599	-10.605033	0.000849	8.485193	2.874861	0.067756
1981	9.9000e-01	-0.8182	-10.596967	0.000020	0.202028	0.068449	0.001613
1982	9.9050e-01	-0.7845	-10.246087	0.000879	8.788235	2.977535	0.070176
1983	9.9100e-01	-0.7347	-10.153326	0.000232	2.323327	0.787164	0.018552
1984	9.9150e-01	-0.7010	-10.213822	-0.000152	-1.515213	-0.513368	-0.012099
1985	9.9200e-01	-0.6609	-9.858910	0.000889	8.889250	3.011759	0.070983
1986	9.9250e-01	-0.6240	-9.741950	0.000293	2.929412	0.992512	0.023392
1987	9.9300e-01	-0.5823	-9.467699	0.000687	6.868966	2.327269	0.054850
1988	9.9350e-01	-0.5438	-9.310408	0.000394	3.939554	1.334757	0.031458
1989	9.9400e-01	-0.4909	-9.391070	-0.000202	-2.020284	-0.684491	-0.016132
1990	9.9450e-01	-0.4524	-9.278143	0.000283	2.828398	0.958287	0.022585
1991	9.9500e-01	-0.4171	-9.015992	0.000657	6.565923	2.224595	0.052430
1992	9.9550e-01	-0.3818	-8.995826	0.000051	0.505071	0.171123	0.004033
1993	9.9600e-01	-0.3433	-8.866767	0.000323	3.232454	1.095185	0.025812
1994	9.9650e-01	-0.2904	-8.653013	0.000535	5.353753	1.813900	0.042751
1995	9.9700e-01	-0.2551	-8.705443	-0.000131	-1.313185	-0.444919	-0.010486
1996	9.9750e-01	-0.2214	-8.314233	0.000980	9.798377	3.319780	0.078242
1997	9.9800e-01	-0.1765	-8.011750	0.000758	7.576065	2.566840	0.060496
1998	9.9850e-01	-0.1332	-8.152909	-0.000354	-3.535497	-1.197859	-0.028232
1999	9.9900e-01	-0.0995	-7.914956	0.000596	5.959838	2.019248	0.047591
2000	9.9950e-01	-0.0561	-7.685069	0.000576	5.757809	1.950799	0.045977
2001	1.0000e+00	-0.0128	-7.709268	0.000576	5.757809	1.950799	-0.004840

PMax (uC/cm2):	7.29e+01
Pr (uC/cm2):	1.73e+00
-Pr (uC/cm2):	-2.19e+00
PLoss (uC/cm2):	-2.19e+00
-Vc:	-4.75e-01
C (Max-Eff) (nF):	3.65e-01
K (Eff):	1.24e+03
Vert. (+/-Pr) Shift (uC/cm2):	-2.28e-01
Offset (uC/cm2):	5.52e+00

A (Loop Area - uC/cm2·Volts):	-1.30e-01



Hysteresis Version: 5.48.1 - Radiant Technologies, Inc., 1999 - 9/12/24

