»»»»»»»»»»»»»»»»»»»»»»»»»»»»»»»»»»»» Hysteresis ««««««««««««««««««««««««««««««««««««
»»»  Executed Version:	5.48.1
»»»  Vision Version:	5.48.4 (R)
»»»  Vision Compiled:	9/18/24
»»»  Driver Version:	5.47.0
»»»  Windows Version:	Windows 8 or 8.1
»»»  Processor Information:	x86 (AMD or Intel) - 32 Processors
»»»  Tester Name:	PMF21124-494 (100V)
»»»  Tester S/N:	PMF21124-494
»»»  Internal Amp Type:	100V RevK 270k
»»»  Internal Amp S/N:	iAB2-596/K     
»»»  Execution Count:	1
»»»»»»»»»»»»»»»»»»»»»»»»»»»»»»»»»»»»»»»»»»««««««««««««««««««««««««««««««««««««««««««

Stored:	6/27/2025 - 15:18:13
Configured:	06/27/25 11:23:28 AM
Executed:	06/27/25 03:17:40 PM

»»»»»»»»»»»»»»»»»»»»»»»»»»»»»»»»»»» Sample Info ««««««««««««««««««««««««««««««««««««
Sample Name:	
Lot Name:	
Wafer Name:	
Die Row/Column:	0/0
Capacitor Number:	0
Sample Area (cm2):	1.00e-04
Sample Thickness (microns):	1.50e-01

Amplifier:	Internal

»»»»»»»»»»»»»»»»»»»»»»»»»»»»»»»»»»» Tester Info «««««««««««««««««««««««««««««««««««
Tester Name:	PMF21124-494 (100V)
Tester Serial Number:	PMF21124-494
Return Signal Amp. Level:	1.9 [Index: 2]

»»»»»»»»»»»»»»»»»»»»»»»»»»»»»»»» Hysteresis Info ««««««««««««««««««««««««««««««««««
Task Name:	Hyst-1276
Volts:	10.00
Field:	666.67 (kV/cm)
DCBias:	0.00
DCField:	0.00 (kV/cm)
Hysteresis Period (ms):	2.00e+02
Preset:	Enabled
Preset Delay (ms):	1.00e+03
Profile:	Standard Monopolar

»»»»»»»»»»»»»»»»»»»»»»»»»»»»»»»»»»»»»» Data «««««««««««««««««««««««««««««««««««««««
Points:	2011

Valid Data

Point	Time (ms)	Drive Voltage	Measured Polarization (uC/cm2)	Capacitance (uF)	Normalized Capacitance (uF/cm2)	Dielectric Constant	Instantaneous Current (mA)
   1	0.0000e+00	-0.0043	-15.752344	0.000377	3.766146	0.638002	0.000038
   2	9.9500e-02	0.0063	-15.714868	0.000377	3.766146	0.638002	0.000038
   3	1.9900e-01	0.0173	-15.673319	0.000418	4.175509	0.707350	0.000042
   4	2.9850e-01	0.0252	-15.632585	0.000409	4.093636	0.693481	0.000041
   5	3.9800e-01	0.0364	-15.593888	0.000389	3.888955	0.658807	0.000039
   6	4.9750e-01	0.0460	-15.557227	0.000368	3.684273	0.624133	0.000037
   7	5.9700e-01	0.0531	-15.515270	0.000422	4.216446	0.714285	0.000042
   8	6.9650e-01	0.0684	-15.474536	0.000409	4.093636	0.693481	0.000041
   9	7.9600e-01	0.0728	-15.438690	0.000360	3.602400	0.610263	0.000036
  10	8.9550e-01	0.0879	-15.399993	0.000389	3.888955	0.658807	0.000039
  11	9.9500e-01	0.0963	-15.352741	0.000475	4.748618	0.804438	0.000047
  12	1.0945e+00	0.1061	-15.317709	0.000352	3.520527	0.596393	0.000035
  13	1.1940e+00	0.1152	-15.273309	0.000446	4.462064	0.755894	0.000045
  14	1.2935e+00	0.1250	-15.235833	0.000377	3.766146	0.638002	0.000038
  15	1.3930e+00	0.1328	-15.195507	0.000405	4.052700	0.686546	0.000041
  16	1.4925e+00	0.1452	-15.155587	0.000401	4.011764	0.679611	0.000040
  17	1.5920e+00	0.1558	-15.114445	0.000413	4.134573	0.700416	0.000041
  18	1.6915e+00	0.1643	-15.076155	0.000385	3.848018	0.651872	0.000038
  19	1.7910e+00	0.1778	-15.033384	0.000430	4.298318	0.728155	0.000043
  20	1.8905e+00	0.1836	-14.994687	0.000389	3.888955	0.658807	0.000039
  21	1.9900e+00	0.1969	-14.952323	0.000426	4.257382	0.721220	0.000043
  22	2.0895e+00	0.2032	-14.914033	0.000385	3.848018	0.651872	0.000038
  23	2.1890e+00	0.2145	-14.870855	0.000434	4.339255	0.735090	0.000043
  24	2.2885e+00	0.2248	-14.831750	0.000393	3.929891	0.665742	0.000039
  25	2.3880e+00	0.2372	-14.793867	0.000381	3.807082	0.644937	0.000038
  26	2.4875e+00	0.2454	-14.755984	0.000381	3.807082	0.644937	0.000038
  27	2.5870e+00	0.2550	-14.716879	0.000393	3.929891	0.665742	0.000039
  28	2.6865e+00	0.2639	-14.668813	0.000483	4.830491	0.818307	0.000048
  29	2.7860e+00	0.2731	-14.632559	0.000364	3.643336	0.617198	0.000036
  30	2.8855e+00	0.2843	-14.592640	0.000401	4.011764	0.679611	0.000040
  31	2.9850e+00	0.2955	-14.553535	0.000393	3.929891	0.665742	0.000039
  32	3.0845e+00	0.3030	-14.509949	0.000438	4.380191	0.742024	0.000044
  33	3.1840e+00	0.3137	-14.473288	0.000368	3.684273	0.624133	0.000037
  34	3.2835e+00	0.3257	-14.432147	0.000413	4.134573	0.700416	0.000041
  35	3.3830e+00	0.3350	-14.397115	0.000352	3.520527	0.596393	0.000035
  36	3.4825e+00	0.3439	-14.355974	0.000413	4.134573	0.700416	0.000041
  37	3.5820e+00	0.3554	-14.319720	0.000364	3.643336	0.617198	0.000036
  38	3.6815e+00	0.3652	-14.276542	0.000434	4.339255	0.735090	0.000043
  39	3.7810e+00	0.3732	-14.240696	0.000360	3.602400	0.610263	0.000036
  40	3.8805e+00	0.3848	-14.201998	0.000389	3.888955	0.658807	0.000039
  41	3.9800e+00	0.3960	-14.160449	0.000418	4.175509	0.707350	0.000042
  42	4.0795e+00	0.4059	-14.121344	0.000393	3.929891	0.665742	0.000039
  43	4.1790e+00	0.4131	-14.078981	0.000426	4.257382	0.721220	0.000043
  44	4.2785e+00	0.4224	-14.041505	0.000377	3.766146	0.638002	0.000038
  45	4.3780e+00	0.4311	-14.003215	0.000385	3.848018	0.651872	0.000038
  46	4.4775e+00	0.4447	-13.964110	0.000393	3.929891	0.665742	0.000039
  47	4.5770e+00	0.4521	-13.921746	0.000426	4.257382	0.721220	0.000043
  48	4.6765e+00	0.4642	-13.882234	0.000397	3.970827	0.672676	0.000040
  49	4.7760e+00	0.4745	-13.843537	0.000389	3.888955	0.658807	0.000039
  50	4.8755e+00	0.4852	-13.806468	0.000373	3.725209	0.631068	0.000037
  51	4.9750e+00	0.4931	-13.763697	0.000430	4.298318	0.728155	0.000043
  52	5.0745e+00	0.5038	-13.727851	0.000360	3.602400	0.610263	0.000036
  53	5.1740e+00	0.5123	-13.689968	0.000381	3.807082	0.644937	0.000038
  54	5.2735e+00	0.5233	-13.651271	0.000389	3.888955	0.658807	0.000039
  55	5.3730e+00	0.5336	-13.610129	0.000413	4.134573	0.700416	0.000041
  56	5.4725e+00	0.5436	-13.568580	0.000418	4.175509	0.707350	0.000042
  57	5.5720e+00	0.5536	-13.530698	0.000381	3.807082	0.644937	0.000038
  58	5.6715e+00	0.5625	-13.489149	0.000418	4.175509	0.707350	0.000042
  59	5.7710e+00	0.5716	-13.445970	0.000434	4.339255	0.735090	0.000043
  60	5.8705e+00	0.5859	-13.410124	0.000360	3.602400	0.610263	0.000036
  61	5.9700e+00	0.5927	-13.364094	0.000463	4.625809	0.783633	0.000046
  62	6.0695e+00	0.6030	-13.324582	0.000397	3.970827	0.672676	0.000040
  63	6.1690e+00	0.6152	-13.284663	0.000401	4.011764	0.679611	0.000040
  64	6.2685e+00	0.6207	-13.243114	0.000418	4.175509	0.707350	0.000042
  65	6.3680e+00	0.6324	-13.207268	0.000360	3.602400	0.610263	0.000036
  66	6.4675e+00	0.6419	-13.168163	0.000393	3.929891	0.665742	0.000039
  67	6.5670e+00	0.6526	-13.129872	0.000385	3.848018	0.651872	0.000038
  68	6.6665e+00	0.6604	-13.094026	0.000360	3.602400	0.610263	0.000036
  69	6.7660e+00	0.6729	-13.050441	0.000438	4.380191	0.742024	0.000044
  70	6.8655e+00	0.6831	-13.011336	0.000393	3.929891	0.665742	0.000039
  71	6.9650e+00	0.6903	-12.974675	0.000368	3.684273	0.624133	0.000037
  72	7.0645e+00	0.7021	-12.937199	0.000377	3.766146	0.638002	0.000038
  73	7.1640e+00	0.7087	-12.894428	0.000430	4.298318	0.728155	0.000043
  74	7.2635e+00	0.7212	-12.863063	0.000315	3.152100	0.533980	0.000032
  75	7.3630e+00	0.7301	-12.822329	0.000409	4.093636	0.693481	0.000041
  76	7.4625e+00	0.7403	-12.784039	0.000385	3.848018	0.651872	0.000038
  77	7.5620e+00	0.7529	-12.748192	0.000360	3.602400	0.610263	0.000036
  78	7.6615e+00	0.7634	-12.713568	0.000348	3.479591	0.589459	0.000035
  79	7.7610e+00	0.7733	-12.676500	0.000373	3.725209	0.631068	0.000037
  80	7.8605e+00	0.7816	-12.637803	0.000389	3.888955	0.658807	0.000039
  81	7.9600e+00	0.7912	-12.603179	0.000348	3.479591	0.589459	0.000035
  82	8.0595e+00	0.8043	-12.565703	0.000377	3.766146	0.638002	0.000038
  83	8.1590e+00	0.8123	-12.528228	0.000377	3.766146	0.638002	0.000038
  84	8.2585e+00	0.8227	-12.492789	0.000356	3.561464	0.603328	0.000036
  85	8.3580e+00	0.8321	-12.452869	0.000401	4.011764	0.679611	0.000040
  86	8.4575e+00	0.8395	-12.419467	0.000336	3.356782	0.568654	0.000034
  87	8.5570e+00	0.8512	-12.381584	0.000381	3.807082	0.644937	0.000038
  88	8.6565e+00	0.8607	-12.342072	0.000397	3.970827	0.672676	0.000040
  89	8.7560e+00	0.8709	-12.304189	0.000381	3.807082	0.644937	0.000038
  90	8.8555e+00	0.8800	-12.267528	0.000368	3.684273	0.624133	0.000037
  91	8.9550e+00	0.8929	-12.232089	0.000356	3.561464	0.603328	0.000036
  92	9.0545e+00	0.9012	-12.188911	0.000434	4.339255	0.735090	0.000043
  93	9.1540e+00	0.9077	-12.153472	0.000356	3.561464	0.603328	0.000036
  94	9.2535e+00	0.9226	-12.113960	0.000397	3.970827	0.672676	0.000040
  95	9.3530e+00	0.9329	-12.078114	0.000360	3.602400	0.610263	0.000036
  96	9.4525e+00	0.9397	-12.039416	0.000389	3.888955	0.658807	0.000039
  97	9.5520e+00	0.9502	-12.002348	0.000373	3.725209	0.631068	0.000037
  98	9.6515e+00	0.9602	-11.966095	0.000364	3.643336	0.617198	0.000036
  99	9.7510e+00	0.9726	-11.925768	0.000405	4.052700	0.686546	0.000041
 100	9.8505e+00	0.9815	-11.891144	0.000348	3.479591	0.589459	0.000035
 101	9.9500e+00	0.9881	-11.854076	0.000373	3.725209	0.631068	0.000037
 102	1.0050e+01	1.0014	-11.814156	0.000401	4.011764	0.679611	0.000040
 103	1.0149e+01	1.0101	-11.776681	0.000377	3.766146	0.638002	0.000038
 104	1.0248e+01	1.0186	-11.742056	0.000348	3.479591	0.589459	0.000035
 105	1.0348e+01	1.0311	-11.704581	0.000377	3.766146	0.638002	0.000038
 106	1.0447e+01	1.0396	-11.665069	0.000397	3.970827	0.672676	0.000040
 107	1.0547e+01	1.0516	-11.625556	0.000397	3.970827	0.672676	0.000040
 108	1.0646e+01	1.0599	-11.589710	0.000360	3.602400	0.610263	0.000036
 109	1.0746e+01	1.0676	-11.556308	0.000336	3.356782	0.568654	0.000034
 110	1.0845e+01	1.0802	-11.515574	0.000409	4.093636	0.693481	0.000041
 111	1.0945e+01	1.0878	-11.474025	0.000418	4.175509	0.707350	0.000042
 112	1.1044e+01	1.1013	-11.442252	0.000319	3.193036	0.540915	0.000032
 113	1.1144e+01	1.1123	-11.401518	0.000409	4.093636	0.693481	0.000041
 114	1.1243e+01	1.1215	-11.367301	0.000344	3.438655	0.582524	0.000034
 115	1.1343e+01	1.1268	-11.330640	0.000368	3.684273	0.624133	0.000037
 116	1.1443e+01	1.1396	-11.291536	0.000393	3.929891	0.665742	0.000039
 117	1.1542e+01	1.1497	-11.258948	0.000327	3.274909	0.554785	0.000033
 118	1.1642e+01	1.1598	-11.219843	0.000393	3.929891	0.665742	0.000039
 119	1.1741e+01	1.1688	-11.181553	0.000385	3.848018	0.651872	0.000038
 120	1.1841e+01	1.1790	-11.141633	0.000401	4.011764	0.679611	0.000040
 121	1.1940e+01	1.1909	-11.104158	0.000377	3.766146	0.638002	0.000038
 122	1.2040e+01	1.1983	-11.067497	0.000368	3.684273	0.624133	0.000037
 123	1.2139e+01	1.2076	-11.031244	0.000364	3.643336	0.617198	0.000036
 124	1.2239e+01	1.2209	-10.989695	0.000418	4.175509	0.707350	0.000042
 125	1.2338e+01	1.2304	-10.957922	0.000319	3.193036	0.540915	0.000032
 126	1.2438e+01	1.2381	-10.917595	0.000405	4.052700	0.686546	0.000041
 127	1.2537e+01	1.2484	-10.880120	0.000377	3.766146	0.638002	0.000038
 128	1.2636e+01	1.2564	-10.845088	0.000352	3.520527	0.596393	0.000035
 129	1.2736e+01	1.2707	-10.811686	0.000336	3.356782	0.568654	0.000034
 130	1.2835e+01	1.2799	-10.771359	0.000405	4.052700	0.686546	0.000041
 131	1.2935e+01	1.2934	-10.734291	0.000373	3.725209	0.631068	0.000037
 132	1.3034e+01	1.2999	-10.700481	0.000340	3.397718	0.575589	0.000034
 133	1.3134e+01	1.3115	-10.660562	0.000401	4.011764	0.679611	0.000040
 134	1.3233e+01	1.3194	-10.623086	0.000377	3.766146	0.638002	0.000038
 135	1.3333e+01	1.3285	-10.583982	0.000393	3.929891	0.665742	0.000039
 136	1.3432e+01	1.3387	-10.546099	0.000381	3.807082	0.644937	0.000038
 137	1.3532e+01	1.3490	-10.509438	0.000368	3.684273	0.624133	0.000037
 138	1.3632e+01	1.3584	-10.475221	0.000344	3.438655	0.582524	0.000034
 139	1.3731e+01	1.3699	-10.439782	0.000356	3.561464	0.603328	0.000036
 140	1.3831e+01	1.3795	-10.404343	0.000356	3.561464	0.603328	0.000036
 141	1.3930e+01	1.3882	-10.365646	0.000389	3.888955	0.658807	0.000039
 142	1.4030e+01	1.4000	-10.337132	0.000287	2.865546	0.485437	0.000029
 143	1.4129e+01	1.4077	-10.298842	0.000385	3.848018	0.651872	0.000038
 144	1.4229e+01	1.4179	-10.262996	0.000360	3.602400	0.610263	0.000036
 145	1.4328e+01	1.4280	-10.231630	0.000315	3.152100	0.533980	0.000032
 146	1.4428e+01	1.4374	-10.193340	0.000385	3.848018	0.651872	0.000038
 147	1.4527e+01	1.4474	-10.159123	0.000344	3.438655	0.582524	0.000034
 148	1.4627e+01	1.4591	-10.117167	0.000422	4.216446	0.714285	0.000042
 149	1.4726e+01	1.4645	-10.079284	0.000381	3.807082	0.644937	0.000038
 150	1.4825e+01	1.4775	-10.046289	0.000332	3.315846	0.561719	0.000033
 151	1.4925e+01	1.4877	-10.010036	0.000364	3.643336	0.617198	0.000036
 152	1.5024e+01	1.4962	-9.969302	0.000409	4.093636	0.693481	0.000041
 153	1.5124e+01	1.5063	-9.937529	0.000319	3.193036	0.540915	0.000032
 154	1.5223e+01	1.5189	-9.903312	0.000344	3.438655	0.582524	0.000034
 155	1.5323e+01	1.5287	-9.864207	0.000393	3.929891	0.665742	0.000039
 156	1.5422e+01	1.5371	-9.824695	0.000397	3.970827	0.672676	0.000040
 157	1.5522e+01	1.5483	-9.790478	0.000344	3.438655	0.582524	0.000034
 158	1.5621e+01	1.5574	-9.750559	0.000401	4.011764	0.679611	0.000040
 159	1.5721e+01	1.5697	-9.714713	0.000360	3.602400	0.610263	0.000036
 160	1.5820e+01	1.5777	-9.680496	0.000344	3.438655	0.582524	0.000034
 161	1.5920e+01	1.5851	-9.643020	0.000377	3.766146	0.638002	0.000038
 162	1.6020e+01	1.5961	-9.599435	0.000438	4.380191	0.742024	0.000044
 163	1.6119e+01	1.6085	-9.562774	0.000368	3.684273	0.624133	0.000037
 164	1.6218e+01	1.6185	-9.524484	0.000385	3.848018	0.651872	0.000038
 165	1.6318e+01	1.6294	-9.483749	0.000409	4.093636	0.693481	0.000041
 166	1.6418e+01	1.6361	-9.443422	0.000405	4.052700	0.686546	0.000041
 167	1.6517e+01	1.6479	-9.410020	0.000336	3.356782	0.568654	0.000034
 168	1.6616e+01	1.6593	-9.371323	0.000389	3.888955	0.658807	0.000039
 169	1.6716e+01	1.6663	-9.332625	0.000389	3.888955	0.658807	0.000039
 170	1.6816e+01	1.6809	-9.298408	0.000344	3.438655	0.582524	0.000034
 171	1.6915e+01	1.6885	-9.261748	0.000368	3.684273	0.624133	0.000037
 172	1.7015e+01	1.6977	-9.224679	0.000373	3.725209	0.631068	0.000037
 173	1.7114e+01	1.7097	-9.190055	0.000348	3.479591	0.589459	0.000035
 174	1.7213e+01	1.7191	-9.151765	0.000385	3.848018	0.651872	0.000038
 175	1.7313e+01	1.7272	-9.115104	0.000368	3.684273	0.624133	0.000037
 176	1.7413e+01	1.7349	-9.076814	0.000385	3.848018	0.651872	0.000038
 177	1.7512e+01	1.7457	-9.041783	0.000352	3.520527	0.596393	0.000035
 178	1.7611e+01	1.7554	-9.003492	0.000385	3.848018	0.651872	0.000038
 179	1.7711e+01	1.7664	-8.969683	0.000340	3.397718	0.575589	0.000034
 180	1.7811e+01	1.7770	-8.932207	0.000377	3.766146	0.638002	0.000038
 181	1.7910e+01	1.7883	-8.894325	0.000381	3.807082	0.644937	0.000038
 182	1.8009e+01	1.7960	-8.857664	0.000368	3.684273	0.624133	0.000037
 183	1.8109e+01	1.8078	-8.821818	0.000360	3.602400	0.610263	0.000036
 184	1.8209e+01	1.8172	-8.786379	0.000356	3.561464	0.603328	0.000036
 185	1.8308e+01	1.8260	-8.751755	0.000348	3.479591	0.589459	0.000035
 186	1.8407e+01	1.8365	-8.713872	0.000381	3.807082	0.644937	0.000038
 187	1.8507e+01	1.8479	-8.679248	0.000348	3.479591	0.589459	0.000035
 188	1.8607e+01	1.8544	-8.640958	0.000385	3.848018	0.651872	0.000038
 189	1.8706e+01	1.8655	-8.605111	0.000360	3.602400	0.610263	0.000036
 190	1.8805e+01	1.8752	-8.569265	0.000360	3.602400	0.610263	0.000036
 191	1.8905e+01	1.8874	-8.536271	0.000332	3.315846	0.561719	0.000033
 192	1.9005e+01	1.8964	-8.497980	0.000385	3.848018	0.651872	0.000038
 193	1.9104e+01	1.9007	-8.460097	0.000381	3.807082	0.644937	0.000038
 194	1.9203e+01	1.9144	-8.427103	0.000332	3.315846	0.561719	0.000033
 195	1.9303e+01	1.9263	-8.385146	0.000422	4.216446	0.714285	0.000042
 196	1.9402e+01	1.9361	-8.347671	0.000377	3.766146	0.638002	0.000038
 197	1.9502e+01	1.9466	-8.311825	0.000360	3.602400	0.610263	0.000036
 198	1.9602e+01	1.9552	-8.278423	0.000336	3.356782	0.568654	0.000034
 199	1.9701e+01	1.9639	-8.240947	0.000377	3.766146	0.638002	0.000038
 200	1.9800e+01	1.9804	-8.206730	0.000344	3.438655	0.582524	0.000034
 201	1.9900e+01	1.9844	-8.171292	0.000356	3.561464	0.603328	0.000036
 202	2.0000e+01	1.9968	-8.136667	0.000348	3.479591	0.589459	0.000035
 203	2.0099e+01	2.0034	-8.103673	0.000332	3.315846	0.561719	0.000033
 204	2.0198e+01	2.0152	-8.065790	0.000381	3.807082	0.644937	0.000038
 205	2.0298e+01	2.0229	-8.030758	0.000352	3.520527	0.596393	0.000035
 206	2.0398e+01	2.0359	-7.994098	0.000368	3.684273	0.624133	0.000037
 207	2.0497e+01	2.0435	-7.957844	0.000364	3.643336	0.617198	0.000036
 208	2.0596e+01	2.0544	-7.921591	0.000364	3.643336	0.617198	0.000036
 209	2.0696e+01	2.0657	-7.892669	0.000291	2.906482	0.492371	0.000029
 210	2.0796e+01	2.0755	-7.849084	0.000438	4.380191	0.742024	0.000044
 211	2.0895e+01	2.0868	-7.811608	0.000377	3.766146	0.638002	0.000038
 212	2.0994e+01	2.0948	-7.781465	0.000303	3.029291	0.513176	0.000030
 213	2.1094e+01	2.1043	-7.746841	0.000348	3.479591	0.589459	0.000035
 214	2.1194e+01	2.1142	-7.708143	0.000389	3.888955	0.658807	0.000039
 215	2.1293e+01	2.1243	-7.673519	0.000348	3.479591	0.589459	0.000035
 216	2.1392e+01	2.1349	-7.638488	0.000352	3.520527	0.596393	0.000035
 217	2.1492e+01	2.1441	-7.607122	0.000315	3.152100	0.533980	0.000032
 218	2.1591e+01	2.1539	-7.569239	0.000381	3.807082	0.644937	0.000038
 219	2.1691e+01	2.1656	-7.532171	0.000373	3.725209	0.631068	0.000037
 220	2.1791e+01	2.1744	-7.501620	0.000307	3.070227	0.520111	0.000031
 221	2.1890e+01	2.1833	-7.465367	0.000364	3.643336	0.617198	0.000036
 222	2.1989e+01	2.1957	-7.427077	0.000385	3.848018	0.651872	0.000038
 223	2.2089e+01	2.2044	-7.391231	0.000360	3.602400	0.610263	0.000036
 224	2.2189e+01	2.2138	-7.357421	0.000340	3.397718	0.575589	0.000034
 225	2.2288e+01	2.2253	-7.318316	0.000393	3.929891	0.665742	0.000039
 226	2.2387e+01	2.2334	-7.281655	0.000368	3.684273	0.624133	0.000037
 227	2.2487e+01	2.2450	-7.243773	0.000381	3.807082	0.644937	0.000038
 228	2.2587e+01	2.2573	-7.207112	0.000368	3.684273	0.624133	0.000037
 229	2.2686e+01	2.2633	-7.169229	0.000381	3.807082	0.644937	0.000038
 230	2.2785e+01	2.2739	-7.131753	0.000377	3.766146	0.638002	0.000038
 231	2.2885e+01	2.2852	-7.098351	0.000336	3.356782	0.568654	0.000034
 232	2.2985e+01	2.2971	-7.064135	0.000344	3.438655	0.582524	0.000034
 233	2.3084e+01	2.3028	-7.023400	0.000409	4.093636	0.693481	0.000041
 234	2.3183e+01	2.3158	-6.995701	0.000278	2.783673	0.471567	0.000028
 235	2.3283e+01	2.3203	-6.958225	0.000377	3.766146	0.638002	0.000038
 236	2.3383e+01	2.3335	-6.923194	0.000352	3.520527	0.596393	0.000035
 237	2.3482e+01	2.3440	-6.889385	0.000340	3.397718	0.575589	0.000034
 238	2.3581e+01	2.3536	-6.856390	0.000332	3.315846	0.561719	0.000033
 239	2.3681e+01	2.3627	-6.819729	0.000368	3.684273	0.624133	0.000037
 240	2.3780e+01	2.3734	-6.782253	0.000377	3.766146	0.638002	0.000038
 241	2.3880e+01	2.3846	-6.744371	0.000381	3.807082	0.644937	0.000038
 242	2.3980e+01	2.3940	-6.712191	0.000323	3.233973	0.547850	0.000032
 243	2.4079e+01	2.4036	-6.677159	0.000352	3.520527	0.596393	0.000035
 244	2.4178e+01	2.4124	-6.643757	0.000336	3.356782	0.568654	0.000034
 245	2.4278e+01	2.4265	-6.609133	0.000348	3.479591	0.589459	0.000035
 246	2.4378e+01	2.4323	-6.580212	0.000291	2.906482	0.492371	0.000029
 247	2.4477e+01	2.4429	-6.546402	0.000340	3.397718	0.575589	0.000034
 248	2.4576e+01	2.4529	-6.515444	0.000311	3.111164	0.527045	0.000031
 249	2.4676e+01	2.4663	-6.486930	0.000287	2.865546	0.485437	0.000029
 250	2.4776e+01	2.4718	-6.447825	0.000393	3.929891	0.665742	0.000039
 251	2.4875e+01	2.4862	-6.416460	0.000315	3.152100	0.533980	0.000032
 252	2.4974e+01	2.4944	-6.385909	0.000307	3.070227	0.520111	0.000031
 253	2.5074e+01	2.5052	-6.352914	0.000332	3.315846	0.561719	0.000033
 254	2.5174e+01	2.5130	-6.320327	0.000327	3.274909	0.554785	0.000033
 255	2.5273e+01	2.5249	-6.282037	0.000385	3.848018	0.651872	0.000038
 256	2.5372e+01	2.5336	-6.251079	0.000311	3.111164	0.527045	0.000031
 257	2.5472e+01	2.5443	-6.214825	0.000364	3.643336	0.617198	0.000036
 258	2.5572e+01	2.5531	-6.181831	0.000332	3.315846	0.561719	0.000033
 259	2.5671e+01	2.5621	-6.149650	0.000323	3.233973	0.547850	0.000032
 260	2.5770e+01	2.5715	-6.118692	0.000311	3.111164	0.527045	0.000031
 261	2.5870e+01	2.5825	-6.077958	0.000409	4.093636	0.693481	0.000041
 262	2.5970e+01	2.5916	-6.042112	0.000360	3.602400	0.610263	0.000036
 263	2.6069e+01	2.6030	-6.011561	0.000307	3.070227	0.520111	0.000031
 264	2.6169e+01	2.6112	-5.978159	0.000336	3.356782	0.568654	0.000034
 265	2.6268e+01	2.6249	-5.943535	0.000348	3.479591	0.589459	0.000035
 266	2.6367e+01	2.6333	-5.909318	0.000344	3.438655	0.582524	0.000034
 267	2.6467e+01	2.6410	-5.874694	0.000348	3.479591	0.589459	0.000035
 268	2.6567e+01	2.6529	-5.841700	0.000332	3.315846	0.561719	0.000033
 269	2.6666e+01	2.6620	-5.808297	0.000336	3.356782	0.568654	0.000034
 270	2.6765e+01	2.6747	-5.773673	0.000348	3.479591	0.589459	0.000035
 271	2.6865e+01	2.6827	-5.738642	0.000352	3.520527	0.596393	0.000035
 272	2.6965e+01	2.6900	-5.704018	0.000348	3.479591	0.589459	0.000035
 273	2.7064e+01	2.7005	-5.672652	0.000315	3.152100	0.533980	0.000032
 274	2.7163e+01	2.7147	-5.637214	0.000356	3.561464	0.603328	0.000036
 275	2.7263e+01	2.7234	-5.601367	0.000360	3.602400	0.610263	0.000036
 276	2.7363e+01	2.7316	-5.567151	0.000344	3.438655	0.582524	0.000034
 277	2.7462e+01	2.7408	-5.537822	0.000295	2.947418	0.499306	0.000029
 278	2.7561e+01	2.7506	-5.505235	0.000327	3.274909	0.554785	0.000033
 279	2.7661e+01	2.7618	-5.468166	0.000373	3.725209	0.631068	0.000037
 280	2.7761e+01	2.7718	-5.435172	0.000332	3.315846	0.561719	0.000033
 281	2.7860e+01	2.7821	-5.404621	0.000307	3.070227	0.520111	0.000031
 282	2.7959e+01	2.7905	-5.372848	0.000319	3.193036	0.540915	0.000032
 283	2.8059e+01	2.8039	-5.336187	0.000368	3.684273	0.624133	0.000037
 284	2.8159e+01	2.8130	-5.301563	0.000348	3.479591	0.589459	0.000035
 285	2.8258e+01	2.8207	-5.269383	0.000323	3.233973	0.547850	0.000032
 286	2.8358e+01	2.8291	-5.234352	0.000352	3.520527	0.596393	0.000035
 287	2.8457e+01	2.8423	-5.200135	0.000344	3.438655	0.582524	0.000034
 288	2.8556e+01	2.8481	-5.166326	0.000340	3.397718	0.575589	0.000034
 289	2.8656e+01	2.8592	-5.132923	0.000336	3.356782	0.568654	0.000034
 290	2.8756e+01	2.8696	-5.097077	0.000360	3.602400	0.610263	0.000036
 291	2.8855e+01	2.8815	-5.064490	0.000327	3.274909	0.554785	0.000033
 292	2.8954e+01	2.8889	-5.032310	0.000323	3.233973	0.547850	0.000032
 293	2.9054e+01	2.9008	-4.995649	0.000368	3.684273	0.624133	0.000037
 294	2.9154e+01	2.9105	-4.965913	0.000299	2.988355	0.506241	0.000030
 295	2.9253e+01	2.9203	-4.929660	0.000364	3.643336	0.617198	0.000036
 296	2.9352e+01	2.9301	-4.897887	0.000319	3.193036	0.540915	0.000032
 297	2.9452e+01	2.9397	-4.864892	0.000332	3.315846	0.561719	0.000033
 298	2.9552e+01	2.9511	-4.830675	0.000344	3.438655	0.582524	0.000034
 299	2.9651e+01	2.9610	-4.796866	0.000340	3.397718	0.575589	0.000034
 300	2.9750e+01	2.9744	-4.762242	0.000348	3.479591	0.589459	0.000035
 301	2.9850e+01	2.9809	-4.727210	0.000352	3.520527	0.596393	0.000035
 302	2.9950e+01	2.9906	-4.696252	0.000311	3.111164	0.527045	0.000031
 303	3.0049e+01	3.0029	-4.657555	0.000389	3.888955	0.658807	0.000039
 304	3.0148e+01	3.0123	-4.627411	0.000303	3.029291	0.513176	0.000030
 305	3.0248e+01	3.0209	-4.594824	0.000327	3.274909	0.554785	0.000033
 306	3.0348e+01	3.0317	-4.560200	0.000348	3.479591	0.589459	0.000035
 307	3.0447e+01	3.0391	-4.526798	0.000336	3.356782	0.568654	0.000034
 308	3.0547e+01	3.0496	-4.498284	0.000287	2.865546	0.485437	0.000029
 309	3.0646e+01	3.0598	-4.465696	0.000327	3.274909	0.554785	0.000033
 310	3.0745e+01	3.0695	-4.435146	0.000307	3.070227	0.520111	0.000031
 311	3.0845e+01	3.0818	-4.401744	0.000336	3.356782	0.568654	0.000034
 312	3.0945e+01	3.0878	-4.371600	0.000303	3.029291	0.513176	0.000030
 313	3.1044e+01	3.0994	-4.342272	0.000295	2.947418	0.499306	0.000029
 314	3.1143e+01	3.1100	-4.305611	0.000368	3.684273	0.624133	0.000037
 315	3.1243e+01	3.1197	-4.278726	0.000270	2.701800	0.457697	0.000027
 316	3.1343e+01	3.1301	-4.244917	0.000340	3.397718	0.575589	0.000034
 317	3.1442e+01	3.1420	-4.209478	0.000356	3.561464	0.603328	0.000036
 318	3.1541e+01	3.1492	-4.177705	0.000319	3.193036	0.540915	0.000032
 319	3.1641e+01	3.1602	-4.138600	0.000393	3.929891	0.665742	0.000039
 320	3.1741e+01	3.1719	-4.111308	0.000274	2.742736	0.464632	0.000027
 321	3.1840e+01	3.1802	-4.075055	0.000364	3.643336	0.617198	0.000036
 322	3.1939e+01	3.1915	-4.045319	0.000299	2.988355	0.506241	0.000030
 323	3.2039e+01	3.2009	-4.012731	0.000327	3.274909	0.554785	0.000033
 324	3.2139e+01	3.2101	-3.976478	0.000364	3.643336	0.617198	0.000036
 325	3.2238e+01	3.2187	-3.946335	0.000303	3.029291	0.513176	0.000030
 326	3.2337e+01	3.2287	-3.912525	0.000340	3.397718	0.575589	0.000034
 327	3.2437e+01	3.2384	-3.881160	0.000315	3.152100	0.533980	0.000032
 328	3.2536e+01	3.2500	-3.844499	0.000368	3.684273	0.624133	0.000037
 329	3.2636e+01	3.2595	-3.809875	0.000348	3.479591	0.589459	0.000035
 330	3.2736e+01	3.2693	-3.771585	0.000385	3.848018	0.651872	0.000038
 331	3.2835e+01	3.2796	-3.739405	0.000323	3.233973	0.547850	0.000032
 332	3.2934e+01	3.2874	-3.706817	0.000327	3.274909	0.554785	0.000033
 333	3.3034e+01	3.2993	-3.670156	0.000368	3.684273	0.624133	0.000037
 334	3.3133e+01	3.3092	-3.632274	0.000381	3.807082	0.644937	0.000038
 335	3.3233e+01	3.3182	-3.602130	0.000303	3.029291	0.513176	0.000030
 336	3.3333e+01	3.3282	-3.563025	0.000393	3.929891	0.665742	0.000039
 337	3.3432e+01	3.3392	-3.532475	0.000307	3.070227	0.520111	0.000031
 338	3.3532e+01	3.3478	-3.501109	0.000315	3.152100	0.533980	0.000032
 339	3.3631e+01	3.3568	-3.466485	0.000348	3.479591	0.589459	0.000035
 340	3.3730e+01	3.3685	-3.432268	0.000344	3.438655	0.582524	0.000034
 341	3.3830e+01	3.3797	-3.399274	0.000332	3.315846	0.561719	0.000033
 342	3.3929e+01	3.3898	-3.366686	0.000327	3.274909	0.554785	0.000033
 343	3.4029e+01	3.3979	-3.335728	0.000311	3.111164	0.527045	0.000031
 344	3.4129e+01	3.4113	-3.301511	0.000344	3.438655	0.582524	0.000034
 345	3.4228e+01	3.4207	-3.266480	0.000352	3.520527	0.596393	0.000035
 346	3.4328e+01	3.4277	-3.236337	0.000303	3.029291	0.513176	0.000030
 347	3.4427e+01	3.4383	-3.204971	0.000315	3.152100	0.533980	0.000032
 348	3.4526e+01	3.4473	-3.166274	0.000389	3.888955	0.658807	0.000039
 349	3.4626e+01	3.4574	-3.134908	0.000315	3.152100	0.533980	0.000032
 350	3.4725e+01	3.4648	-3.101914	0.000332	3.315846	0.561719	0.000033
 351	3.4825e+01	3.4796	-3.070955	0.000311	3.111164	0.527045	0.000031
 352	3.4925e+01	3.4887	-3.035924	0.000352	3.520527	0.596393	0.000035
 353	3.5024e+01	3.4974	-3.003337	0.000327	3.274909	0.554785	0.000033
 354	3.5123e+01	3.5097	-2.973601	0.000299	2.988355	0.506241	0.000030
 355	3.5223e+01	3.5191	-2.941421	0.000323	3.233973	0.547850	0.000032
 356	3.5322e+01	3.5279	-2.906796	0.000348	3.479591	0.589459	0.000035
 357	3.5422e+01	3.5371	-2.872172	0.000348	3.479591	0.589459	0.000035
 358	3.5522e+01	3.5477	-2.844473	0.000278	2.783673	0.471567	0.000028
 359	3.5621e+01	3.5601	-2.810664	0.000340	3.397718	0.575589	0.000034
 360	3.5721e+01	3.5678	-2.780520	0.000303	3.029291	0.513176	0.000030
 361	3.5820e+01	3.5790	-2.743859	0.000368	3.684273	0.624133	0.000037
 362	3.5919e+01	3.5873	-2.712087	0.000319	3.193036	0.540915	0.000032
 363	3.6019e+01	3.5979	-2.677870	0.000344	3.438655	0.582524	0.000034
 364	3.6118e+01	3.6066	-2.644468	0.000336	3.356782	0.568654	0.000034
 365	3.6218e+01	3.6185	-2.612695	0.000319	3.193036	0.540915	0.000032
 366	3.6318e+01	3.6280	-2.580515	0.000323	3.233973	0.547850	0.000032
 367	3.6417e+01	3.6388	-2.545891	0.000348	3.479591	0.589459	0.000035
 368	3.6517e+01	3.6489	-2.517377	0.000287	2.865546	0.485437	0.000029
 369	3.6616e+01	3.6566	-2.481938	0.000356	3.561464	0.603328	0.000036
 370	3.6715e+01	3.6681	-2.450165	0.000319	3.193036	0.540915	0.000032
 371	3.6815e+01	3.6758	-2.416763	0.000336	3.356782	0.568654	0.000034
 372	3.6914e+01	3.6845	-2.387842	0.000291	2.906482	0.492371	0.000029
 373	3.7014e+01	3.6974	-2.358106	0.000299	2.988355	0.506241	0.000030
 374	3.7114e+01	3.7070	-2.323482	0.000348	3.479591	0.589459	0.000035
 375	3.7213e+01	3.7174	-2.290895	0.000327	3.274909	0.554785	0.000033
 376	3.7313e+01	3.7292	-2.257492	0.000336	3.356782	0.568654	0.000034
 377	3.7412e+01	3.7366	-2.229386	0.000282	2.824609	0.478502	0.000028
 378	3.7511e+01	3.7489	-2.196798	0.000327	3.274909	0.554785	0.000033
 379	3.7611e+01	3.7582	-2.160138	0.000368	3.684273	0.624133	0.000037
 380	3.7711e+01	3.7650	-2.130402	0.000299	2.988355	0.506241	0.000030
 381	3.7810e+01	3.7756	-2.096592	0.000340	3.397718	0.575589	0.000034
 382	3.7910e+01	3.7867	-2.070522	0.000262	2.619927	0.443828	0.000026
 383	3.8009e+01	3.7937	-2.035898	0.000348	3.479591	0.589459	0.000035
 384	3.8108e+01	3.8065	-2.005347	0.000307	3.070227	0.520111	0.000031
 385	3.8208e+01	3.8156	-1.976019	0.000295	2.947418	0.499306	0.000029
 386	3.8307e+01	3.8256	-1.940580	0.000356	3.561464	0.603328	0.000036
 387	3.8407e+01	3.8360	-1.909622	0.000311	3.111164	0.527045	0.000031
 388	3.8507e+01	3.8475	-1.878257	0.000315	3.152100	0.533980	0.000032
 389	3.8606e+01	3.8567	-1.848520	0.000299	2.988355	0.506241	0.000030
 390	3.8706e+01	3.8679	-1.814304	0.000344	3.438655	0.582524	0.000034
 391	3.8805e+01	3.8747	-1.783753	0.000307	3.070227	0.520111	0.000031
 392	3.8904e+01	3.8838	-1.751573	0.000323	3.233973	0.547850	0.000032
 393	3.9004e+01	3.8939	-1.713690	0.000381	3.807082	0.644937	0.000038
 394	3.9103e+01	3.9063	-1.682325	0.000315	3.152100	0.533980	0.000032
 395	3.9203e+01	3.9181	-1.647701	0.000348	3.479591	0.589459	0.000035
 396	3.9303e+01	3.9253	-1.613484	0.000344	3.438655	0.582524	0.000034
 397	3.9402e+01	3.9359	-1.579674	0.000340	3.397718	0.575589	0.000034
 398	3.9502e+01	3.9444	-1.546680	0.000332	3.315846	0.561719	0.000033
 399	3.9601e+01	3.9561	-1.511241	0.000356	3.561464	0.603328	0.000036
 400	3.9700e+01	3.9665	-1.483949	0.000274	2.742736	0.464632	0.000027
 401	3.9800e+01	3.9745	-1.452176	0.000319	3.193036	0.540915	0.000032
 402	3.9900e+01	3.9861	-1.424477	0.000278	2.783673	0.471567	0.000028
 403	3.9999e+01	3.9991	-1.391889	0.000327	3.274909	0.554785	0.000033
 404	4.0099e+01	4.0041	-1.358895	0.000332	3.315846	0.561719	0.000033
 405	4.0198e+01	4.0144	-1.325900	0.000332	3.315846	0.561719	0.000033
 406	4.0297e+01	4.0240	-1.295349	0.000307	3.070227	0.520111	0.000031
 407	4.0397e+01	4.0349	-1.264799	0.000307	3.070227	0.520111	0.000031
 408	4.0496e+01	4.0453	-1.232619	0.000323	3.233973	0.547850	0.000032
 409	4.0596e+01	4.0563	-1.200438	0.000323	3.233973	0.547850	0.000032
 410	4.0696e+01	4.0673	-1.168258	0.000323	3.233973	0.547850	0.000032
 411	4.0795e+01	4.0753	-1.138930	0.000295	2.947418	0.499306	0.000029
 412	4.0895e+01	4.0855	-1.109601	0.000295	2.947418	0.499306	0.000029
 413	4.0994e+01	4.0952	-1.078643	0.000311	3.111164	0.527045	0.000031
 414	4.1093e+01	4.1064	-1.052980	0.000258	2.578991	0.436893	0.000026
 415	4.1193e+01	4.1163	-1.022430	0.000307	3.070227	0.520111	0.000031
 416	4.1292e+01	4.1247	-0.993916	0.000287	2.865546	0.485437	0.000029
 417	4.1392e+01	4.1369	-0.963772	0.000303	3.029291	0.513176	0.000030
 418	4.1492e+01	4.1446	-0.933629	0.000303	3.029291	0.513176	0.000030
 419	4.1591e+01	4.1561	-0.903078	0.000307	3.070227	0.520111	0.000031
 420	4.1691e+01	4.1656	-0.873750	0.000295	2.947418	0.499306	0.000029
 421	4.1790e+01	4.1743	-0.844828	0.000291	2.906482	0.492371	0.000029
 422	4.1889e+01	4.1853	-0.816314	0.000287	2.865546	0.485437	0.000029
 423	4.1989e+01	4.1940	-0.782505	0.000340	3.397718	0.575589	0.000034
 424	4.2089e+01	4.2052	-0.753176	0.000295	2.947418	0.499306	0.000029
 425	4.2188e+01	4.2158	-0.722218	0.000311	3.111164	0.527045	0.000031
 426	4.2288e+01	4.2254	-0.693297	0.000291	2.906482	0.492371	0.000029
 427	4.2387e+01	4.2350	-0.660302	0.000332	3.315846	0.561719	0.000033
 428	4.2486e+01	4.2446	-0.628937	0.000315	3.152100	0.533980	0.000032
 429	4.2586e+01	4.2547	-0.598386	0.000307	3.070227	0.520111	0.000031
 430	4.2685e+01	4.2628	-0.569872	0.000287	2.865546	0.485437	0.000029
 431	4.2785e+01	4.2717	-0.538914	0.000311	3.111164	0.527045	0.000031
 432	4.2885e+01	4.2841	-0.507549	0.000315	3.152100	0.533980	0.000032
 433	4.2984e+01	4.2953	-0.477813	0.000299	2.988355	0.506241	0.000030
 434	4.3084e+01	4.3060	-0.445633	0.000323	3.233973	0.547850	0.000032
 435	4.3183e+01	4.3123	-0.416711	0.000291	2.906482	0.492371	0.000029
 436	4.3282e+01	4.3233	-0.383717	0.000332	3.315846	0.561719	0.000033
 437	4.3382e+01	4.3333	-0.351944	0.000319	3.193036	0.540915	0.000032
 438	4.3481e+01	4.3424	-0.323837	0.000282	2.824609	0.478502	0.000028
 439	4.3581e+01	4.3552	-0.294509	0.000295	2.947418	0.499306	0.000029
 440	4.3681e+01	4.3645	-0.263143	0.000315	3.152100	0.533980	0.000032
 441	4.3780e+01	4.3736	-0.235444	0.000278	2.783673	0.471567	0.000028
 442	4.3880e+01	4.3845	-0.204079	0.000315	3.152100	0.533980	0.000032
 443	4.3979e+01	4.3960	-0.172306	0.000319	3.193036	0.540915	0.000032
 444	4.4078e+01	4.4035	-0.140941	0.000315	3.152100	0.533980	0.000032
 445	4.4178e+01	4.4123	-0.109575	0.000315	3.152100	0.533980	0.000032
 446	4.4278e+01	4.4225	-0.081061	0.000287	2.865546	0.485437	0.000029
 447	4.4377e+01	4.4329	-0.053362	0.000278	2.783673	0.471567	0.000028
 448	4.4477e+01	4.4440	-0.022404	0.000311	3.111164	0.527045	0.000031
 449	4.4576e+01	4.4550	0.006517	0.000291	2.906482	0.492371	0.000029
 450	4.4675e+01	4.4637	0.037068	0.000307	3.070227	0.520111	0.000031
 451	4.4775e+01	4.4731	0.069248	0.000323	3.233973	0.547850	0.000032
 452	4.4874e+01	4.4813	0.096133	0.000270	2.701800	0.457697	0.000027
 453	4.4974e+01	4.4953	0.128720	0.000327	3.274909	0.554785	0.000033
 454	4.5074e+01	4.5049	0.156420	0.000278	2.783673	0.471567	0.000028
 455	4.5173e+01	4.5156	0.188192	0.000319	3.193036	0.540915	0.000032
 456	4.5273e+01	4.5196	0.219558	0.000315	3.152100	0.533980	0.000032
 457	4.5372e+01	4.5325	0.251738	0.000323	3.233973	0.547850	0.000032
 458	4.5471e+01	4.5429	0.286362	0.000348	3.479591	0.589459	0.000035
 459	4.5571e+01	4.5525	0.313246	0.000270	2.701800	0.457697	0.000027
 460	4.5670e+01	4.5625	0.340946	0.000278	2.783673	0.471567	0.000028
 461	4.5770e+01	4.5736	0.370682	0.000299	2.988355	0.506241	0.000030
 462	4.5870e+01	4.5818	0.397159	0.000266	2.660864	0.450763	0.000027
 463	4.5969e+01	4.5924	0.431783	0.000348	3.479591	0.589459	0.000035
 464	4.6069e+01	4.6029	0.463963	0.000323	3.233973	0.547850	0.000032
 465	4.6168e+01	4.6143	0.493699	0.000299	2.988355	0.506241	0.000030
 466	4.6267e+01	4.6243	0.523435	0.000299	2.988355	0.506241	0.000030
 467	4.6367e+01	4.6316	0.553171	0.000299	2.988355	0.506241	0.000030
 468	4.6467e+01	4.6461	0.585351	0.000323	3.233973	0.547850	0.000032
 469	4.6566e+01	4.6522	0.614273	0.000291	2.906482	0.492371	0.000029
 470	4.6666e+01	4.6602	0.644416	0.000303	3.029291	0.513176	0.000030
 471	4.6765e+01	4.6734	0.674559	0.000303	3.029291	0.513176	0.000030
 472	4.6864e+01	4.6822	0.703481	0.000291	2.906482	0.492371	0.000029
 473	4.6964e+01	4.6914	0.734846	0.000315	3.152100	0.533980	0.000032
 474	4.7063e+01	4.7020	0.766619	0.000319	3.193036	0.540915	0.000032
 475	4.7163e+01	4.7110	0.793096	0.000266	2.660864	0.450763	0.000027
 476	4.7263e+01	4.7217	0.821610	0.000287	2.865546	0.485437	0.000029
 477	4.7362e+01	4.7318	0.846050	0.000246	2.456182	0.416088	0.000025
 478	4.7462e+01	4.7413	0.878638	0.000327	3.274909	0.554785	0.000033
 479	4.7561e+01	4.7513	0.907152	0.000287	2.865546	0.485437	0.000029
 480	4.7660e+01	4.7619	0.934851	0.000278	2.783673	0.471567	0.000028
 481	4.7760e+01	4.7689	0.963365	0.000287	2.865546	0.485437	0.000029
 482	4.7859e+01	4.7869	0.989842	0.000266	2.660864	0.450763	0.000027
 483	4.7959e+01	4.7891	1.022022	0.000323	3.233973	0.547850	0.000032
 484	4.8059e+01	4.8016	1.051758	0.000299	2.988355	0.506241	0.000030
 485	4.8158e+01	4.8107	1.083124	0.000315	3.152100	0.533980	0.000032
 486	4.8258e+01	4.8213	1.114489	0.000315	3.152100	0.533980	0.000032
 487	4.8357e+01	4.8335	1.140559	0.000262	2.619927	0.443828	0.000026
 488	4.8456e+01	4.8409	1.170295	0.000299	2.988355	0.506241	0.000030
 489	4.8556e+01	4.8532	1.201253	0.000311	3.111164	0.527045	0.000031
 490	4.8656e+01	4.8598	1.228952	0.000278	2.783673	0.471567	0.000028
 491	4.8755e+01	4.8746	1.259096	0.000303	3.029291	0.513176	0.000030
 492	4.8855e+01	4.8801	1.290461	0.000315	3.152100	0.533980	0.000032
 493	4.8954e+01	4.8919	1.318975	0.000287	2.865546	0.485437	0.000029
 494	4.9053e+01	4.9003	1.349933	0.000311	3.111164	0.527045	0.000031
 495	4.9153e+01	4.9113	1.379669	0.000299	2.988355	0.506241	0.000030
 496	4.9252e+01	4.9216	1.411035	0.000315	3.152100	0.533980	0.000032
 497	4.9352e+01	4.9323	1.447695	0.000368	3.684273	0.624133	0.000037
 498	4.9452e+01	4.9392	1.475802	0.000282	2.824609	0.478502	0.000028
 499	4.9551e+01	4.9514	1.507982	0.000323	3.233973	0.547850	0.000032
 500	4.9651e+01	4.9609	1.538533	0.000307	3.070227	0.520111	0.000031
 501	4.9750e+01	4.9688	1.569898	0.000315	3.152100	0.533980	0.000032
 502	4.9849e+01	4.9805	1.602893	0.000332	3.315846	0.561719	0.000033
 503	4.9949e+01	4.9905	1.635073	0.000323	3.233973	0.547850	0.000032
 504	5.0048e+01	5.0014	1.663180	0.000282	2.824609	0.478502	0.000028
 505	5.0148e+01	5.0127	1.694952	0.000319	3.193036	0.540915	0.000032
 506	5.0248e+01	5.0214	1.725910	0.000311	3.111164	0.527045	0.000031
 507	5.0347e+01	5.0307	1.752388	0.000266	2.660864	0.450763	0.000027
 508	5.0447e+01	5.0394	1.783346	0.000311	3.111164	0.527045	0.000031
 509	5.0546e+01	5.0489	1.811860	0.000287	2.865546	0.485437	0.000029
 510	5.0645e+01	5.0593	1.841188	0.000295	2.947418	0.499306	0.000029
 511	5.0745e+01	5.0736	1.870517	0.000295	2.947418	0.499306	0.000029
 512	5.0844e+01	5.0782	1.902290	0.000319	3.193036	0.540915	0.000032
 513	5.0944e+01	5.0898	1.929582	0.000274	2.742736	0.464632	0.000027
 514	5.1044e+01	5.1011	1.961354	0.000319	3.193036	0.540915	0.000032
 515	5.1143e+01	5.1109	1.991090	0.000299	2.988355	0.506241	0.000030
 516	5.1242e+01	5.1207	2.020826	0.000299	2.988355	0.506241	0.000030
 517	5.1342e+01	5.1281	2.049340	0.000287	2.865546	0.485437	0.000029
 518	5.1441e+01	5.1400	2.078669	0.000295	2.947418	0.499306	0.000029
 519	5.1541e+01	5.1496	2.110034	0.000315	3.152100	0.533980	0.000032
 520	5.1641e+01	5.1592	2.139770	0.000299	2.988355	0.506241	0.000030
 521	5.1740e+01	5.1681	2.169506	0.000299	2.988355	0.506241	0.000030
 522	5.1840e+01	5.1832	2.196391	0.000270	2.701800	0.457697	0.000027
 523	5.1939e+01	5.1923	2.224905	0.000287	2.865546	0.485437	0.000029
 524	5.2038e+01	5.2018	2.256678	0.000319	3.193036	0.540915	0.000032
 525	5.2138e+01	5.2090	2.283970	0.000274	2.742736	0.464632	0.000027
 526	5.2237e+01	5.2197	2.313298	0.000295	2.947418	0.499306	0.000029
 527	5.2337e+01	5.2293	2.345886	0.000327	3.274909	0.554785	0.000033
 528	5.2437e+01	5.2396	2.374400	0.000287	2.865546	0.485437	0.000029
 529	5.2536e+01	5.2504	2.404136	0.000299	2.988355	0.506241	0.000030
 530	5.2636e+01	5.2602	2.434279	0.000303	3.029291	0.513176	0.000030
 531	5.2735e+01	5.2691	2.463608	0.000295	2.947418	0.499306	0.000029
 532	5.2834e+01	5.2798	2.492936	0.000295	2.947418	0.499306	0.000029
 533	5.2934e+01	5.2895	2.525116	0.000323	3.233973	0.547850	0.000032
 534	5.3033e+01	5.2984	2.553223	0.000282	2.824609	0.478502	0.000028
 535	5.3133e+01	5.3087	2.581330	0.000282	2.824609	0.478502	0.000028
 536	5.3233e+01	5.3199	2.613102	0.000319	3.193036	0.540915	0.000032
 537	5.3332e+01	5.3295	2.641616	0.000287	2.865546	0.485437	0.000029
 538	5.3431e+01	5.3381	2.669723	0.000282	2.824609	0.478502	0.000028
 539	5.3531e+01	5.3493	2.696200	0.000266	2.660864	0.450763	0.000027
 540	5.3630e+01	5.3591	2.725529	0.000295	2.947418	0.499306	0.000029
 541	5.3730e+01	5.3689	2.750784	0.000254	2.538055	0.429958	0.000025
 542	5.3830e+01	5.3800	2.779706	0.000291	2.906482	0.492371	0.000029
 543	5.3929e+01	5.3909	2.813108	0.000336	3.356782	0.568654	0.000034
 544	5.4029e+01	5.3980	2.839992	0.000270	2.701800	0.457697	0.000027
 545	5.4128e+01	5.4089	2.870136	0.000303	3.029291	0.513176	0.000030
 546	5.4227e+01	5.4171	2.901094	0.000311	3.111164	0.527045	0.000031
 547	5.4327e+01	5.4296	2.927571	0.000266	2.660864	0.450763	0.000027
 548	5.4426e+01	5.4375	2.956085	0.000287	2.865546	0.485437	0.000029
 549	5.4526e+01	5.4490	2.985006	0.000291	2.906482	0.492371	0.000029
 550	5.4626e+01	5.4603	3.016372	0.000315	3.152100	0.533980	0.000032
 551	5.4725e+01	5.4714	3.043256	0.000270	2.701800	0.457697	0.000027
 552	5.4825e+01	5.4777	3.070141	0.000270	2.701800	0.457697	0.000027
 553	5.4924e+01	5.4875	3.099062	0.000291	2.906482	0.492371	0.000029
 554	5.5023e+01	5.4992	3.126761	0.000278	2.783673	0.471567	0.000028
 555	5.5123e+01	5.5097	3.157719	0.000311	3.111164	0.527045	0.000031
 556	5.5222e+01	5.5190	3.185826	0.000282	2.824609	0.478502	0.000028
 557	5.5322e+01	5.5298	3.216377	0.000307	3.070227	0.520111	0.000031
 558	5.5422e+01	5.5383	3.244483	0.000282	2.824609	0.478502	0.000028
 559	5.5521e+01	5.5463	3.274627	0.000303	3.029291	0.513176	0.000030
 560	5.5620e+01	5.5568	3.301919	0.000274	2.742736	0.464632	0.000027
 561	5.5720e+01	5.5703	3.336135	0.000344	3.438655	0.582524	0.000034
 562	5.5819e+01	5.5771	3.367094	0.000311	3.111164	0.527045	0.000031
 563	5.5919e+01	5.5878	3.397644	0.000307	3.070227	0.520111	0.000031
 564	5.6019e+01	5.5993	3.429824	0.000323	3.233973	0.547850	0.000032
 565	5.6118e+01	5.6065	3.457524	0.000278	2.783673	0.471567	0.000028
 566	5.6218e+01	5.6190	3.487260	0.000299	2.988355	0.506241	0.000030
 567	5.6317e+01	5.6277	3.515366	0.000282	2.824609	0.478502	0.000028
 568	5.6416e+01	5.6365	3.542658	0.000274	2.742736	0.464632	0.000027
 569	5.6516e+01	5.6464	3.572802	0.000303	3.029291	0.513176	0.000030
 570	5.6615e+01	5.6554	3.597242	0.000246	2.456182	0.416088	0.000025
 571	5.6715e+01	5.6670	3.626163	0.000291	2.906482	0.492371	0.000029
 572	5.6815e+01	5.6762	3.659565	0.000336	3.356782	0.568654	0.000034
 573	5.6914e+01	5.6841	3.684006	0.000246	2.456182	0.416088	0.000025
 574	5.7014e+01	5.6973	3.714557	0.000307	3.070227	0.520111	0.000031
 575	5.7113e+01	5.7049	3.739405	0.000250	2.497118	0.423023	0.000025
 576	5.7212e+01	5.7183	3.772399	0.000332	3.315846	0.561719	0.000033
 577	5.7312e+01	5.7275	3.802950	0.000307	3.070227	0.520111	0.000031
 578	5.7411e+01	5.7362	3.827391	0.000246	2.456182	0.416088	0.000025
 579	5.7511e+01	5.7500	3.855090	0.000278	2.783673	0.471567	0.000028
 580	5.7611e+01	5.7560	3.880345	0.000254	2.538055	0.429958	0.000025
 581	5.7710e+01	5.7639	3.907637	0.000274	2.742736	0.464632	0.000027
 582	5.7809e+01	5.7803	3.932485	0.000250	2.497118	0.423023	0.000025
 583	5.7909e+01	5.7860	3.954481	0.000221	2.210564	0.374480	0.000022
 584	5.8008e+01	5.7963	3.987069	0.000327	3.274909	0.554785	0.000033
 585	5.8108e+01	5.8057	4.013546	0.000266	2.660864	0.450763	0.000027
 586	5.8208e+01	5.8184	4.037579	0.000242	2.415246	0.409154	0.000024
 587	5.8307e+01	5.8282	4.063242	0.000258	2.578991	0.436893	0.000026
 588	5.8407e+01	5.8398	4.092163	0.000291	2.906482	0.492371	0.000029
 589	5.8506e+01	5.8463	4.121085	0.000291	2.906482	0.492371	0.000029
 590	5.8605e+01	5.8562	4.144710	0.000237	2.374309	0.402219	0.000024
 591	5.8705e+01	5.8665	4.173632	0.000291	2.906482	0.492371	0.000029
 592	5.8804e+01	5.8813	4.202146	0.000287	2.865546	0.485437	0.000029
 593	5.8904e+01	5.8836	4.227808	0.000258	2.578991	0.436893	0.000026
 594	5.9004e+01	5.8984	4.256730	0.000291	2.906482	0.492371	0.000029
 595	5.9103e+01	5.9069	4.280763	0.000242	2.415246	0.409154	0.000024
 596	5.9203e+01	5.9156	4.313350	0.000327	3.274909	0.554785	0.000033
 597	5.9302e+01	5.9266	4.343086	0.000299	2.988355	0.506241	0.000030
 598	5.9401e+01	5.9319	4.366712	0.000237	2.374309	0.402219	0.000024
 599	5.9501e+01	5.9481	4.396448	0.000299	2.988355	0.506241	0.000030
 600	5.9600e+01	5.9559	4.425369	0.000291	2.906482	0.492371	0.000029
 601	5.9700e+01	5.9654	4.450217	0.000250	2.497118	0.423023	0.000025
 602	5.9800e+01	5.9755	4.479953	0.000299	2.988355	0.506241	0.000030
 603	5.9899e+01	5.9844	4.509689	0.000299	2.988355	0.506241	0.000030
 604	5.9998e+01	5.9956	4.531686	0.000221	2.210564	0.374480	0.000022
 605	6.0098e+01	6.0075	4.561422	0.000299	2.988355	0.506241	0.000030
 606	6.0197e+01	6.0174	4.591973	0.000307	3.070227	0.520111	0.000031
 607	6.0297e+01	6.0253	4.619265	0.000274	2.742736	0.464632	0.000027
 608	6.0397e+01	6.0371	4.644927	0.000258	2.578991	0.436893	0.000026
 609	6.0496e+01	6.0452	4.673441	0.000287	2.865546	0.485437	0.000029
 610	6.0596e+01	6.0554	4.699104	0.000258	2.578991	0.436893	0.000026
 611	6.0695e+01	6.0643	4.728840	0.000299	2.988355	0.506241	0.000030
 612	6.0794e+01	6.0746	4.755724	0.000270	2.701800	0.457697	0.000027
 613	6.0894e+01	6.0828	4.782609	0.000270	2.701800	0.457697	0.000027
 614	6.0993e+01	6.0963	4.808271	0.000258	2.578991	0.436893	0.000026
 615	6.1093e+01	6.1034	4.837600	0.000295	2.947418	0.499306	0.000029
 616	6.1193e+01	6.1158	4.862448	0.000250	2.497118	0.423023	0.000025
 617	6.1292e+01	6.1250	4.890555	0.000282	2.824609	0.478502	0.000028
 618	6.1392e+01	6.1353	4.915810	0.000254	2.538055	0.429958	0.000025
 619	6.1491e+01	6.1452	4.943917	0.000282	2.824609	0.478502	0.000028
 620	6.1590e+01	6.1546	4.974875	0.000311	3.111164	0.527045	0.000031
 621	6.1690e+01	6.1628	4.998093	0.000233	2.333373	0.395284	0.000023
 622	6.1789e+01	6.1749	5.027014	0.000291	2.906482	0.492371	0.000029
 623	6.1889e+01	6.1865	5.056343	0.000295	2.947418	0.499306	0.000029
 624	6.1989e+01	6.1939	5.086486	0.000303	3.029291	0.513176	0.000030
 625	6.2088e+01	6.2048	5.113371	0.000270	2.701800	0.457697	0.000027
 626	6.2188e+01	6.2151	5.142700	0.000295	2.947418	0.499306	0.000029
 627	6.2287e+01	6.2240	5.168770	0.000262	2.619927	0.443828	0.000026
 628	6.2386e+01	6.2322	5.193618	0.000250	2.497118	0.423023	0.000025
 629	6.2486e+01	6.2441	5.222132	0.000287	2.865546	0.485437	0.000029
 630	6.2586e+01	6.2543	5.250238	0.000282	2.824609	0.478502	0.000028
 631	6.2685e+01	6.2644	5.275086	0.000250	2.497118	0.423023	0.000025
 632	6.2785e+01	6.2734	5.302378	0.000274	2.742736	0.464632	0.000027
 633	6.2884e+01	6.2853	5.330892	0.000287	2.865546	0.485437	0.000029
 634	6.2983e+01	6.2959	5.360221	0.000295	2.947418	0.499306	0.000029
 635	6.3083e+01	6.3029	5.386291	0.000262	2.619927	0.443828	0.000026
 636	6.3182e+01	6.3131	5.413175	0.000270	2.701800	0.457697	0.000027
 637	6.3282e+01	6.3219	5.439652	0.000266	2.660864	0.450763	0.000027
 638	6.3382e+01	6.3343	5.472240	0.000327	3.274909	0.554785	0.000033
 639	6.3481e+01	6.3418	5.495458	0.000233	2.333373	0.395284	0.000023
 640	6.3581e+01	6.3519	5.524380	0.000291	2.906482	0.492371	0.000029
 641	6.3680e+01	6.3650	5.548006	0.000237	2.374309	0.402219	0.000024
 642	6.3779e+01	6.3725	5.573668	0.000258	2.578991	0.436893	0.000026
 643	6.3879e+01	6.3825	5.600145	0.000266	2.660864	0.450763	0.000027
 644	6.3978e+01	6.3924	5.625808	0.000258	2.578991	0.436893	0.000026
 645	6.4078e+01	6.4026	5.651878	0.000262	2.619927	0.443828	0.000026
 646	6.4177e+01	6.4132	5.677133	0.000254	2.538055	0.429958	0.000025
 647	6.4277e+01	6.4222	5.705240	0.000282	2.824609	0.478502	0.000028
 648	6.4376e+01	6.4315	5.727644	0.000225	2.251500	0.381414	0.000023
 649	6.4476e+01	6.4431	5.757787	0.000303	3.029291	0.513176	0.000030
 650	6.4576e+01	6.4544	5.781005	0.000233	2.333373	0.395284	0.000023
 651	6.4675e+01	6.4619	5.808705	0.000278	2.783673	0.471567	0.000028
 652	6.4775e+01	6.4738	5.833960	0.000254	2.538055	0.429958	0.000025
 653	6.4874e+01	6.4802	5.863696	0.000299	2.988355	0.506241	0.000030
 654	6.4974e+01	6.4931	5.891395	0.000278	2.783673	0.471567	0.000028
 655	6.5073e+01	6.5063	5.918687	0.000274	2.742736	0.464632	0.000027
 656	6.5172e+01	6.5118	5.944757	0.000262	2.619927	0.443828	0.000026
 657	6.5272e+01	6.5209	5.971642	0.000270	2.701800	0.457697	0.000027
 658	6.5371e+01	6.5322	5.999748	0.000282	2.824609	0.478502	0.000028
 659	6.5471e+01	6.5420	6.023374	0.000237	2.374309	0.402219	0.000024
 660	6.5570e+01	6.5535	6.051481	0.000282	2.824609	0.478502	0.000028
 661	6.5670e+01	6.5639	6.078366	0.000270	2.701800	0.457697	0.000027
 662	6.5769e+01	6.5737	6.106880	0.000287	2.865546	0.485437	0.000029
 663	6.5869e+01	6.5806	6.133764	0.000270	2.701800	0.457697	0.000027
 664	6.5969e+01	6.5931	6.172462	0.000389	3.888955	0.658807	0.000039
 665	6.6068e+01	6.6006	6.196902	0.000246	2.456182	0.416088	0.000025
 666	6.6168e+01	6.6125	6.226231	0.000295	2.947418	0.499306	0.000029
 667	6.6267e+01	6.6241	6.254745	0.000287	2.865546	0.485437	0.000029
 668	6.6367e+01	6.6329	6.284888	0.000303	3.029291	0.513176	0.000030
 669	6.6466e+01	6.6409	6.312180	0.000274	2.742736	0.464632	0.000027
 670	6.6566e+01	6.6518	6.338657	0.000266	2.660864	0.450763	0.000027
 671	6.6665e+01	6.6626	6.367171	0.000287	2.865546	0.485437	0.000029
 672	6.6764e+01	6.6725	6.393649	0.000266	2.660864	0.450763	0.000027
 673	6.6864e+01	6.6833	6.422977	0.000295	2.947418	0.499306	0.000029
 674	6.6963e+01	6.6935	6.451491	0.000287	2.865546	0.485437	0.000029
 675	6.7063e+01	6.7034	6.477969	0.000266	2.660864	0.450763	0.000027
 676	6.7162e+01	6.7116	6.506075	0.000282	2.824609	0.478502	0.000028
 677	6.7262e+01	6.7220	6.532960	0.000270	2.701800	0.457697	0.000027
 678	6.7362e+01	6.7285	6.559844	0.000270	2.701800	0.457697	0.000027
 679	6.7461e+01	6.7396	6.592839	0.000332	3.315846	0.561719	0.000033
 680	6.7561e+01	6.7510	6.614021	0.000213	2.128691	0.360610	0.000021
 681	6.7660e+01	6.7627	6.647423	0.000336	3.356782	0.568654	0.000034
 682	6.7760e+01	6.7742	6.668605	0.000213	2.128691	0.360610	0.000021
 683	6.7859e+01	6.7832	6.693045	0.000246	2.456182	0.416088	0.000025
 684	6.7959e+01	6.7906	6.724003	0.000311	3.111164	0.527045	0.000031
 685	6.8058e+01	6.8008	6.749666	0.000258	2.578991	0.436893	0.000026
 686	6.8157e+01	6.8114	6.777773	0.000282	2.824609	0.478502	0.000028
 687	6.8257e+01	6.8215	6.806287	0.000287	2.865546	0.485437	0.000029
 688	6.8356e+01	6.8317	6.831542	0.000254	2.538055	0.429958	0.000025
 689	6.8456e+01	6.8404	6.859241	0.000278	2.783673	0.471567	0.000028
 690	6.8555e+01	6.8523	6.883682	0.000246	2.456182	0.416088	0.000025
 691	6.8655e+01	6.8600	6.913418	0.000299	2.988355	0.506241	0.000030
 692	6.8754e+01	6.8721	6.940302	0.000270	2.701800	0.457697	0.000027
 693	6.8854e+01	6.8835	6.968409	0.000282	2.824609	0.478502	0.000028
 694	6.8954e+01	6.8890	6.994479	0.000262	2.619927	0.443828	0.000026
 695	6.9053e+01	6.9013	7.020956	0.000266	2.660864	0.450763	0.000027
 696	6.9153e+01	6.9121	7.047841	0.000270	2.701800	0.457697	0.000027
 697	6.9252e+01	6.9204	7.077984	0.000303	3.029291	0.513176	0.000030
 698	6.9352e+01	6.9324	7.104461	0.000266	2.660864	0.450763	0.000027
 699	6.9451e+01	6.9382	7.132161	0.000278	2.783673	0.471567	0.000028
 700	6.9550e+01	6.9496	7.158638	0.000266	2.660864	0.450763	0.000027
 701	6.9650e+01	6.9604	7.188374	0.000299	2.988355	0.506241	0.000030
 702	6.9749e+01	6.9727	7.212000	0.000237	2.374309	0.402219	0.000024
 703	6.9849e+01	6.9805	7.239292	0.000274	2.742736	0.464632	0.000027
 704	6.9948e+01	6.9917	7.263732	0.000246	2.456182	0.416088	0.000025
 705	7.0048e+01	6.9985	7.289802	0.000262	2.619927	0.443828	0.000026
 706	7.0147e+01	7.0090	7.318724	0.000291	2.906482	0.492371	0.000029
 707	7.0247e+01	7.0213	7.344794	0.000262	2.619927	0.443828	0.000026
 708	7.0347e+01	7.0313	7.368419	0.000237	2.374309	0.402219	0.000024
 709	7.0446e+01	7.0419	7.396933	0.000287	2.865546	0.485437	0.000029
 710	7.0546e+01	7.0483	7.422189	0.000254	2.538055	0.429958	0.000025
 711	7.0645e+01	7.0605	7.449481	0.000274	2.742736	0.464632	0.000027
 712	7.0745e+01	7.0686	7.479624	0.000303	3.029291	0.513176	0.000030
 713	7.0844e+01	7.0810	7.502435	0.000229	2.292436	0.388349	0.000023
 714	7.0944e+01	7.0906	7.532171	0.000299	2.988355	0.506241	0.000030
 715	7.1043e+01	7.1006	7.556204	0.000242	2.415246	0.409154	0.000024
 716	7.1142e+01	7.1114	7.583089	0.000270	2.701800	0.457697	0.000027
 717	7.1242e+01	7.1207	7.612418	0.000295	2.947418	0.499306	0.000029
 718	7.1341e+01	7.1325	7.635229	0.000229	2.292436	0.388349	0.000023
 719	7.1441e+01	7.1410	7.664150	0.000291	2.906482	0.492371	0.000029
 720	7.1540e+01	7.1507	7.689405	0.000254	2.538055	0.429958	0.000025
 721	7.1640e+01	7.1595	7.713439	0.000242	2.415246	0.409154	0.000024
 722	7.1740e+01	7.1712	7.739101	0.000258	2.578991	0.436893	0.000026
 723	7.1839e+01	7.1789	7.765986	0.000270	2.701800	0.457697	0.000027
 724	7.1939e+01	7.1889	7.792870	0.000270	2.701800	0.457697	0.000027
 725	7.2038e+01	7.1992	7.819755	0.000270	2.701800	0.457697	0.000027
 726	7.2138e+01	7.2073	7.849084	0.000295	2.947418	0.499306	0.000029
 727	7.2237e+01	7.2221	7.875154	0.000262	2.619927	0.443828	0.000026
 728	7.2337e+01	7.2292	7.905297	0.000303	3.029291	0.513176	0.000030
 729	7.2436e+01	7.2412	7.934626	0.000295	2.947418	0.499306	0.000029
 730	7.2535e+01	7.2478	7.963140	0.000287	2.865546	0.485437	0.000029
 731	7.2635e+01	7.2588	7.992468	0.000295	2.947418	0.499306	0.000029
 732	7.2734e+01	7.2656	8.019353	0.000270	2.701800	0.457697	0.000027
 733	7.2834e+01	7.2772	8.046237	0.000270	2.701800	0.457697	0.000027
 734	7.2933e+01	7.2899	8.075159	0.000291	2.906482	0.492371	0.000029
 735	7.3033e+01	7.2985	8.101636	0.000266	2.660864	0.450763	0.000027
 736	7.3132e+01	7.3074	8.124855	0.000233	2.333373	0.395284	0.000023
 737	7.3232e+01	7.3197	8.151739	0.000270	2.701800	0.457697	0.000027
 738	7.3332e+01	7.3264	8.179846	0.000282	2.824609	0.478502	0.000028
 739	7.3431e+01	7.3357	8.205508	0.000258	2.578991	0.436893	0.000026
 740	7.3531e+01	7.3490	8.227098	0.000217	2.169627	0.367545	0.000022
 741	7.3630e+01	7.3570	8.255204	0.000282	2.824609	0.478502	0.000028
 742	7.3730e+01	7.3689	8.282903	0.000278	2.783673	0.471567	0.000028
 743	7.3829e+01	7.3792	8.310603	0.000278	2.783673	0.471567	0.000028
 744	7.3928e+01	7.3857	8.337895	0.000274	2.742736	0.464632	0.000027
 745	7.4028e+01	7.3989	8.363150	0.000254	2.538055	0.429958	0.000025
 746	7.4127e+01	7.4075	8.388405	0.000254	2.538055	0.429958	0.000025
 747	7.4227e+01	7.4191	8.413660	0.000254	2.538055	0.429958	0.000025
 748	7.4326e+01	7.4268	8.435250	0.000217	2.169627	0.367545	0.000022
 749	7.4426e+01	7.4403	8.457653	0.000225	2.251500	0.381414	0.000023
 750	7.4525e+01	7.4467	8.484945	0.000274	2.742736	0.464632	0.000027
 751	7.4625e+01	7.4562	8.505720	0.000209	2.087755	0.353675	0.000021
 752	7.4725e+01	7.4658	8.532197	0.000266	2.660864	0.450763	0.000027
 753	7.4824e+01	7.4776	8.559896	0.000278	2.783673	0.471567	0.000028
 754	7.4924e+01	7.4883	8.580264	0.000205	2.046818	0.346740	0.000020
 755	7.5023e+01	7.4969	8.609185	0.000291	2.906482	0.492371	0.000029
 756	7.5123e+01	7.5082	8.634440	0.000254	2.538055	0.429958	0.000025
 757	7.5222e+01	7.5172	8.661325	0.000270	2.701800	0.457697	0.000027
 758	7.5322e+01	7.5293	8.682506	0.000213	2.128691	0.360610	0.000021
 759	7.5421e+01	7.5373	8.711835	0.000295	2.947418	0.499306	0.000029
 760	7.5520e+01	7.5500	8.735461	0.000237	2.374309	0.402219	0.000024
 761	7.5620e+01	7.5557	8.759087	0.000237	2.374309	0.402219	0.000024
 762	7.5719e+01	7.5672	8.782713	0.000237	2.374309	0.402219	0.000024
 763	7.5819e+01	7.5761	8.811634	0.000291	2.906482	0.492371	0.000029
 764	7.5918e+01	7.5907	8.837297	0.000258	2.578991	0.436893	0.000026
 765	7.6018e+01	7.5962	8.860923	0.000237	2.374309	0.402219	0.000024
 766	7.6118e+01	7.6058	8.891066	0.000303	3.029291	0.513176	0.000030
 767	7.6217e+01	7.6175	8.915506	0.000246	2.456182	0.416088	0.000025
 768	7.6317e+01	7.6263	8.941984	0.000266	2.660864	0.450763	0.000027
 769	7.6416e+01	7.6367	8.968868	0.000270	2.701800	0.457697	0.000027
 770	7.6516e+01	7.6449	8.992087	0.000233	2.333373	0.395284	0.000023
 771	7.6615e+01	7.6594	9.017749	0.000258	2.578991	0.436893	0.000026
 772	7.6715e+01	7.6670	9.045856	0.000282	2.824609	0.478502	0.000028
 773	7.6814e+01	7.6752	9.070704	0.000250	2.497118	0.423023	0.000025
 774	7.6913e+01	7.6881	9.098811	0.000282	2.824609	0.478502	0.000028
 775	7.7013e+01	7.6955	9.122436	0.000237	2.374309	0.402219	0.000024
 776	7.7112e+01	7.7058	9.146470	0.000242	2.415246	0.409154	0.000024
 777	7.7212e+01	7.7153	9.171725	0.000254	2.538055	0.429958	0.000025
 778	7.7311e+01	7.7254	9.201461	0.000299	2.988355	0.506241	0.000030
 779	7.7411e+01	7.7352	9.226716	0.000254	2.538055	0.429958	0.000025
 780	7.7510e+01	7.7444	9.248305	0.000217	2.169627	0.367545	0.000022
 781	7.7610e+01	7.7582	9.277227	0.000291	2.906482	0.492371	0.000029
 782	7.7710e+01	7.7646	9.304111	0.000270	2.701800	0.457697	0.000027
 783	7.7809e+01	7.7770	9.328552	0.000246	2.456182	0.416088	0.000025
 784	7.7909e+01	7.7862	9.354214	0.000258	2.578991	0.436893	0.000026
 785	7.8008e+01	7.7954	9.374174	0.000201	2.005882	0.339806	0.000020
 786	7.8108e+01	7.8053	9.405540	0.000315	3.152100	0.533980	0.000032
 787	7.8207e+01	7.8174	9.429165	0.000237	2.374309	0.402219	0.000024
 788	7.8306e+01	7.8260	9.455643	0.000266	2.660864	0.450763	0.000027
 789	7.8406e+01	7.8369	9.481713	0.000262	2.619927	0.443828	0.000026
 790	7.8505e+01	7.8439	9.509412	0.000278	2.783673	0.471567	0.000028
 791	7.8605e+01	7.8577	9.540777	0.000315	3.152100	0.533980	0.000032
 792	7.8704e+01	7.8690	9.561959	0.000213	2.128691	0.360610	0.000021
 793	7.8804e+01	7.8766	9.588436	0.000266	2.660864	0.450763	0.000027
 794	7.8903e+01	7.8862	9.612470	0.000242	2.415246	0.409154	0.000024
 795	7.9003e+01	7.8963	9.637317	0.000250	2.497118	0.423023	0.000025
 796	7.9103e+01	7.9053	9.666646	0.000295	2.947418	0.499306	0.000029
 797	7.9202e+01	7.9140	9.691901	0.000254	2.538055	0.429958	0.000025
 798	7.9302e+01	7.9242	9.715935	0.000242	2.415246	0.409154	0.000024
 799	7.9401e+01	7.9338	9.744041	0.000282	2.824609	0.478502	0.000028
 800	7.9501e+01	7.9457	9.768074	0.000242	2.415246	0.409154	0.000024
 801	7.9600e+01	7.9572	9.796588	0.000287	2.865546	0.485437	0.000029
 802	7.9700e+01	7.9651	9.826324	0.000299	2.988355	0.506241	0.000030
 803	7.9799e+01	7.9755	9.849136	0.000229	2.292436	0.388349	0.000023
 804	7.9898e+01	7.9874	9.876428	0.000274	2.742736	0.464632	0.000027
 805	7.9998e+01	7.9958	9.899646	0.000233	2.333373	0.395284	0.000023
 806	8.0097e+01	8.0047	9.924494	0.000250	2.497118	0.423023	0.000025
 807	8.0197e+01	8.0138	9.953823	0.000295	2.947418	0.499306	0.000029
 808	8.0296e+01	8.0249	9.972968	0.000192	1.924009	0.325936	0.000019
 809	8.0396e+01	8.0329	10.003518	0.000307	3.070227	0.520111	0.000031
 810	8.0496e+01	8.0437	10.029996	0.000266	2.660864	0.450763	0.000027
 811	8.0595e+01	8.0579	10.054844	0.000250	2.497118	0.423023	0.000025
 812	8.0695e+01	8.0640	10.078877	0.000242	2.415246	0.409154	0.000024
 813	8.0794e+01	8.0744	10.100059	0.000213	2.128691	0.360610	0.000021
 814	8.0894e+01	8.0818	10.126943	0.000270	2.701800	0.457697	0.000027
 815	8.0993e+01	8.0946	10.150569	0.000237	2.374309	0.402219	0.000024
 816	8.1093e+01	8.1043	10.174195	0.000237	2.374309	0.402219	0.000024
 817	8.1192e+01	8.1152	10.198635	0.000246	2.456182	0.416088	0.000025
 818	8.1291e+01	8.1254	10.227964	0.000295	2.947418	0.499306	0.000029
 819	8.1391e+01	8.1339	10.250775	0.000229	2.292436	0.388349	0.000023
 820	8.1490e+01	8.1425	10.277660	0.000270	2.701800	0.457697	0.000027
 821	8.1590e+01	8.1575	10.303730	0.000262	2.619927	0.443828	0.000026
 822	8.1689e+01	8.1641	10.330614	0.000270	2.701800	0.457697	0.000027
 823	8.1789e+01	8.1772	10.355870	0.000254	2.538055	0.429958	0.000025
 824	8.1888e+01	8.1831	10.382754	0.000270	2.701800	0.457697	0.000027
 825	8.1988e+01	8.1934	10.403529	0.000209	2.087755	0.353675	0.000021
 826	8.2088e+01	8.2032	10.430006	0.000266	2.660864	0.450763	0.000027
 827	8.2187e+01	8.2171	10.458113	0.000282	2.824609	0.478502	0.000028
 828	8.2287e+01	8.2244	10.482961	0.000250	2.497118	0.423023	0.000025
 829	8.2386e+01	8.2337	10.513104	0.000303	3.029291	0.513176	0.000030
 830	8.2486e+01	8.2453	10.537952	0.000250	2.497118	0.423023	0.000025
 831	8.2585e+01	8.2538	10.566466	0.000287	2.865546	0.485437	0.000029
 832	8.2684e+01	8.2632	10.595387	0.000291	2.906482	0.492371	0.000029
 833	8.2784e+01	8.2715	10.624308	0.000291	2.906482	0.492371	0.000029
 834	8.2883e+01	8.2838	10.653637	0.000295	2.947418	0.499306	0.000029
 835	8.2983e+01	8.2925	10.681336	0.000278	2.783673	0.471567	0.000028
 836	8.3082e+01	8.3071	10.708221	0.000270	2.701800	0.457697	0.000027
 837	8.3182e+01	8.3131	10.735513	0.000274	2.742736	0.464632	0.000027
 838	8.3281e+01	8.3237	10.762805	0.000274	2.742736	0.464632	0.000027
 839	8.3381e+01	8.3318	10.787653	0.000250	2.497118	0.423023	0.000025
 840	8.3481e+01	8.3426	10.816574	0.000291	2.906482	0.492371	0.000029
 841	8.3580e+01	8.3545	10.843866	0.000274	2.742736	0.464632	0.000027
 842	8.3680e+01	8.3646	10.870751	0.000270	2.701800	0.457697	0.000027
 843	8.3779e+01	8.3725	10.894784	0.000242	2.415246	0.409154	0.000024
 844	8.3879e+01	8.3823	10.924113	0.000295	2.947418	0.499306	0.000029
 845	8.3978e+01	8.3920	10.946516	0.000225	2.251500	0.381414	0.000023
 846	8.4078e+01	8.4030	10.972994	0.000266	2.660864	0.450763	0.000027
 847	8.4177e+01	8.4141	10.998249	0.000254	2.538055	0.429958	0.000025
 848	8.4276e+01	8.4212	11.026356	0.000282	2.824609	0.478502	0.000028
 849	8.4376e+01	8.4345	11.049981	0.000237	2.374309	0.402219	0.000024
 850	8.4475e+01	8.4436	11.079310	0.000295	2.947418	0.499306	0.000029
 851	8.4575e+01	8.4546	11.109046	0.000299	2.988355	0.506241	0.000030
 852	8.4674e+01	8.4628	11.134709	0.000258	2.578991	0.436893	0.000026
 853	8.4774e+01	8.4726	11.159557	0.000250	2.497118	0.423023	0.000025
 854	8.4874e+01	8.4827	11.185626	0.000262	2.619927	0.443828	0.000026
 855	8.4973e+01	8.4912	11.212918	0.000274	2.742736	0.464632	0.000027
 856	8.5073e+01	8.5001	11.240210	0.000274	2.742736	0.464632	0.000027
 857	8.5172e+01	8.5136	11.268317	0.000282	2.824609	0.478502	0.000028
 858	8.5272e+01	8.5222	11.292758	0.000246	2.456182	0.416088	0.000025
 859	8.5371e+01	8.5352	11.316791	0.000242	2.415246	0.409154	0.000024
 860	8.5471e+01	8.5400	11.345712	0.000291	2.906482	0.492371	0.000029
 861	8.5570e+01	8.5547	11.370153	0.000246	2.456182	0.416088	0.000025
 862	8.5669e+01	8.5629	11.395408	0.000254	2.538055	0.429958	0.000025
 863	8.5769e+01	8.5737	11.423107	0.000278	2.783673	0.471567	0.000028
 864	8.5868e+01	8.5829	11.450399	0.000274	2.742736	0.464632	0.000027
 865	8.5968e+01	8.5913	11.476062	0.000258	2.578991	0.436893	0.000026
 866	8.6067e+01	8.6035	11.507020	0.000311	3.111164	0.527045	0.000031
 867	8.6167e+01	8.6118	11.531053	0.000242	2.415246	0.409154	0.000024
 868	8.6266e+01	8.6204	11.562011	0.000311	3.111164	0.527045	0.000031
 869	8.6366e+01	8.6328	11.587266	0.000254	2.538055	0.429958	0.000025
 870	8.6466e+01	8.6405	11.612929	0.000258	2.578991	0.436893	0.000026
 871	8.6565e+01	8.6530	11.643072	0.000303	3.029291	0.513176	0.000030
 872	8.6665e+01	8.6615	11.664254	0.000213	2.128691	0.360610	0.000021
 873	8.6764e+01	8.6713	11.693175	0.000291	2.906482	0.492371	0.000029
 874	8.6864e+01	8.6820	11.719653	0.000266	2.660864	0.450763	0.000027
 875	8.6963e+01	8.6897	11.746944	0.000274	2.742736	0.464632	0.000027
 876	8.7063e+01	8.7029	11.767719	0.000209	2.087755	0.353675	0.000021
 877	8.7162e+01	8.7125	11.796233	0.000287	2.865546	0.485437	0.000029
 878	8.7261e+01	8.7244	11.823118	0.000270	2.701800	0.457697	0.000027
 879	8.7361e+01	8.7325	11.850817	0.000278	2.783673	0.471567	0.000028
 880	8.7460e+01	8.7398	11.878516	0.000278	2.783673	0.471567	0.000028
 881	8.7560e+01	8.7543	11.903364	0.000250	2.497118	0.423023	0.000025
 882	8.7659e+01	8.7605	11.933100	0.000299	2.988355	0.506241	0.000030
 883	8.7759e+01	8.7715	11.956726	0.000237	2.374309	0.402219	0.000024
 884	8.7859e+01	8.7803	11.985647	0.000291	2.906482	0.492371	0.000029
 885	8.7958e+01	8.7943	12.013754	0.000282	2.824609	0.478502	0.000028
 886	8.8058e+01	8.8027	12.041046	0.000274	2.742736	0.464632	0.000027
 887	8.8157e+01	8.8123	12.063857	0.000229	2.292436	0.388349	0.000023
 888	8.8257e+01	8.8220	12.085854	0.000221	2.210564	0.374480	0.000022
 889	8.8356e+01	8.8297	12.115590	0.000299	2.988355	0.506241	0.000030
 890	8.8456e+01	8.8398	12.140030	0.000246	2.456182	0.416088	0.000025
 891	8.8555e+01	8.8529	12.171395	0.000315	3.152100	0.533980	0.000032
 892	8.8654e+01	8.8590	12.197873	0.000266	2.660864	0.450763	0.000027
 893	8.8754e+01	8.8709	12.223128	0.000254	2.538055	0.429958	0.000025
 894	8.8853e+01	8.8819	12.251235	0.000282	2.824609	0.478502	0.000028
 895	8.8953e+01	8.8894	12.279341	0.000282	2.824609	0.478502	0.000028
 896	8.9052e+01	8.9008	12.312336	0.000332	3.315846	0.561719	0.000033
 897	8.9152e+01	8.9115	12.341257	0.000291	2.906482	0.492371	0.000029
 898	8.9251e+01	8.9185	12.368957	0.000278	2.783673	0.471567	0.000028
 899	8.9351e+01	8.9285	12.397471	0.000287	2.865546	0.485437	0.000029
 900	8.9451e+01	8.9396	12.425985	0.000287	2.865546	0.485437	0.000029
 901	8.9550e+01	8.9474	12.452869	0.000270	2.701800	0.457697	0.000027
 902	8.9650e+01	8.9581	12.480568	0.000278	2.783673	0.471567	0.000028
 903	8.9749e+01	8.9703	12.511119	0.000307	3.070227	0.520111	0.000031
 904	8.9849e+01	8.9768	12.536782	0.000258	2.578991	0.436893	0.000026
 905	8.9948e+01	8.9880	12.562037	0.000254	2.538055	0.429958	0.000025
 906	9.0047e+01	8.9990	12.590551	0.000287	2.865546	0.485437	0.000029
 907	9.0147e+01	9.0095	12.618658	0.000282	2.824609	0.478502	0.000028
 908	9.0246e+01	9.0179	12.646357	0.000278	2.783673	0.471567	0.000028
 909	9.0346e+01	9.0311	12.675278	0.000291	2.906482	0.492371	0.000029
 910	9.0445e+01	9.0388	12.703385	0.000282	2.824609	0.478502	0.000028
 911	9.0545e+01	9.0505	12.732306	0.000291	2.906482	0.492371	0.000029
 912	9.0644e+01	9.0591	12.758376	0.000262	2.619927	0.443828	0.000026
 913	9.0744e+01	9.0695	12.783224	0.000250	2.497118	0.423023	0.000025
 914	9.0844e+01	9.0804	12.810923	0.000278	2.783673	0.471567	0.000028
 915	9.0943e+01	9.0922	12.836586	0.000258	2.578991	0.436893	0.000026
 916	9.1043e+01	9.0995	12.865100	0.000287	2.865546	0.485437	0.000029
 917	9.1142e+01	9.1116	12.887096	0.000221	2.210564	0.374480	0.000022
 918	9.1242e+01	9.1153	12.916018	0.000291	2.906482	0.492371	0.000029
 919	9.1341e+01	9.1274	12.940866	0.000250	2.497118	0.423023	0.000025
 920	9.1441e+01	9.1382	12.969379	0.000287	2.865546	0.485437	0.000029
 921	9.1540e+01	9.1470	12.994635	0.000254	2.538055	0.429958	0.000025
 922	9.1639e+01	9.1566	13.021927	0.000274	2.742736	0.464632	0.000027
 923	9.1739e+01	9.1718	13.047589	0.000258	2.578991	0.436893	0.000026
 924	9.1838e+01	9.1791	13.073252	0.000258	2.578991	0.436893	0.000026
 925	9.1938e+01	9.1882	13.104210	0.000311	3.111164	0.527045	0.000031
 926	9.2037e+01	9.2001	13.131909	0.000278	2.783673	0.471567	0.000028
 927	9.2137e+01	9.2095	13.157979	0.000262	2.619927	0.443828	0.000026
 928	9.2237e+01	9.2177	13.186493	0.000287	2.865546	0.485437	0.000029
 929	9.2336e+01	9.2287	13.217044	0.000307	3.070227	0.520111	0.000031
 930	9.2436e+01	9.2384	13.248002	0.000311	3.111164	0.527045	0.000031
 931	9.2535e+01	9.2471	13.275294	0.000274	2.742736	0.464632	0.000027
 932	9.2635e+01	9.2590	13.302993	0.000278	2.783673	0.471567	0.000028
 933	9.2734e+01	9.2685	13.331507	0.000287	2.865546	0.485437	0.000029
 934	9.2834e+01	9.2807	13.360428	0.000291	2.906482	0.492371	0.000029
 935	9.2933e+01	9.2871	13.393016	0.000327	3.274909	0.554785	0.000033
 936	9.3032e+01	9.2983	13.420715	0.000278	2.783673	0.471567	0.000028
 937	9.3132e+01	9.3073	13.450044	0.000295	2.947418	0.499306	0.000029
 938	9.3231e+01	9.3174	13.476928	0.000270	2.701800	0.457697	0.000027
 939	9.3331e+01	9.3275	13.507479	0.000307	3.070227	0.520111	0.000031
 940	9.3430e+01	9.3401	13.534364	0.000270	2.701800	0.457697	0.000027
 941	9.3530e+01	9.3482	13.565322	0.000311	3.111164	0.527045	0.000031
 942	9.3629e+01	9.3591	13.592614	0.000274	2.742736	0.464632	0.000027
 943	9.3729e+01	9.3680	13.626423	0.000340	3.397718	0.575589	0.000034
 944	9.3829e+01	9.3777	13.653715	0.000274	2.742736	0.464632	0.000027
 945	9.3928e+01	9.3848	13.685895	0.000323	3.233973	0.547850	0.000032
 946	9.4028e+01	9.3971	13.716038	0.000303	3.029291	0.513176	0.000030
 947	9.4127e+01	9.4080	13.744552	0.000287	2.865546	0.485437	0.000029
 948	9.4227e+01	9.4167	13.774288	0.000299	2.988355	0.506241	0.000030
 949	9.4326e+01	9.4276	13.801173	0.000270	2.701800	0.457697	0.000027
 950	9.4425e+01	9.4365	13.832538	0.000315	3.152100	0.533980	0.000032
 951	9.4525e+01	9.4474	13.863089	0.000307	3.070227	0.520111	0.000031
 952	9.4624e+01	9.4559	13.893232	0.000303	3.029291	0.513176	0.000030
 953	9.4724e+01	9.4646	13.920932	0.000278	2.783673	0.471567	0.000028
 954	9.4823e+01	9.4759	13.956370	0.000356	3.561464	0.603328	0.000036
 955	9.4923e+01	9.4861	13.983662	0.000274	2.742736	0.464632	0.000027
 956	9.5022e+01	9.4973	14.013806	0.000303	3.029291	0.513176	0.000030
 957	9.5122e+01	9.5052	14.049652	0.000360	3.602400	0.610263	0.000036
 958	9.5222e+01	9.5145	14.081017	0.000315	3.152100	0.533980	0.000032
 959	9.5321e+01	9.5252	14.114012	0.000332	3.315846	0.561719	0.000033
 960	9.5421e+01	9.5355	14.146192	0.000323	3.233973	0.547850	0.000032
 961	9.5520e+01	9.5473	14.175521	0.000295	2.947418	0.499306	0.000029
 962	9.5620e+01	9.5566	14.209738	0.000344	3.438655	0.582524	0.000034
 963	9.5719e+01	9.5638	14.236215	0.000266	2.660864	0.450763	0.000027
 964	9.5819e+01	9.5772	14.268802	0.000327	3.274909	0.554785	0.000033
 965	9.5918e+01	9.5874	14.296502	0.000278	2.783673	0.471567	0.000028
 966	9.6017e+01	9.5937	14.329089	0.000327	3.274909	0.554785	0.000033
 967	9.6117e+01	9.6071	14.364528	0.000356	3.561464	0.603328	0.000036
 968	9.6216e+01	9.6149	14.398337	0.000340	3.397718	0.575589	0.000034
 969	9.6316e+01	9.6252	14.431332	0.000332	3.315846	0.561719	0.000033
 970	9.6415e+01	9.6363	14.459031	0.000278	2.783673	0.471567	0.000028
 971	9.6515e+01	9.6478	14.492433	0.000336	3.356782	0.568654	0.000034
 972	9.6615e+01	9.6582	14.528279	0.000360	3.602400	0.610263	0.000036
 973	9.6714e+01	9.6632	14.560460	0.000323	3.233973	0.547850	0.000032
 974	9.6814e+01	9.6777	14.595491	0.000352	3.520527	0.596393	0.000035
 975	9.6913e+01	9.6848	14.628893	0.000336	3.356782	0.568654	0.000034
 976	9.7013e+01	9.6951	14.664332	0.000356	3.561464	0.603328	0.000036
 977	9.7112e+01	9.7054	14.697327	0.000332	3.315846	0.561719	0.000033
 978	9.7212e+01	9.7150	14.728692	0.000315	3.152100	0.533980	0.000032
 979	9.7311e+01	9.7286	14.763723	0.000352	3.520527	0.596393	0.000035
 980	9.7410e+01	9.7356	14.797126	0.000336	3.356782	0.568654	0.000034
 981	9.7510e+01	9.7433	14.830528	0.000336	3.356782	0.568654	0.000034
 982	9.7609e+01	9.7546	14.865152	0.000348	3.479591	0.589459	0.000035
 983	9.7709e+01	9.7659	14.901405	0.000364	3.643336	0.617198	0.000036
 984	9.7808e+01	9.7718	14.936844	0.000356	3.561464	0.603328	0.000036
 985	9.7908e+01	9.7861	14.970653	0.000340	3.397718	0.575589	0.000034
 986	9.8007e+01	9.7935	15.005278	0.000348	3.479591	0.589459	0.000035
 987	9.8107e+01	9.8059	15.041124	0.000360	3.602400	0.610263	0.000036
 988	9.8207e+01	9.8151	15.078599	0.000377	3.766146	0.638002	0.000038
 989	9.8306e+01	9.8242	15.116889	0.000385	3.848018	0.651872	0.000038
 990	9.8406e+01	9.8357	15.147847	0.000311	3.111164	0.527045	0.000031
 991	9.8505e+01	9.8457	15.184916	0.000373	3.725209	0.631068	0.000037
 992	9.8605e+01	9.8560	15.224835	0.000401	4.011764	0.679611	0.000040
 993	9.8704e+01	9.8635	15.257015	0.000323	3.233973	0.547850	0.000032
 994	9.8803e+01	9.8745	15.296935	0.000401	4.011764	0.679611	0.000040
 995	9.8903e+01	9.8857	15.332781	0.000360	3.602400	0.610263	0.000036
 996	9.9002e+01	9.8956	15.367405	0.000348	3.479591	0.589459	0.000035
 997	9.9102e+01	9.9059	15.403659	0.000364	3.643336	0.617198	0.000036
 998	9.9201e+01	9.9158	15.443985	0.000405	4.052700	0.686546	0.000041
 999	9.9301e+01	9.9243	15.481054	0.000373	3.725209	0.631068	0.000037
1000	9.9400e+01	9.9353	15.514863	0.000340	3.397718	0.575589	0.000034
1001	9.9500e+01	9.9432	15.556819	0.000422	4.216446	0.714285	0.000042
1002	9.9600e+01	9.9561	15.594295	0.000377	3.766146	0.638002	0.000038
1003	9.9699e+01	9.9658	15.631363	0.000373	3.725209	0.631068	0.000037
1004	9.9799e+01	9.9734	15.671283	0.000401	4.011764	0.679611	0.000040
1005	9.9898e+01	9.9847	15.712017	0.000409	4.093636	0.693481	0.000041
1006	9.9998e+01	9.9966	15.751529	0.000397	3.970827	0.672676	0.000040
1007	1.0010e+02	9.9841	15.751122	0.000004	0.040936	0.006935	-0.000000
1008	1.0020e+02	9.9738	15.752344	-0.000012	-0.122809	-0.020804	0.000001
1009	1.0030e+02	9.9646	15.748270	0.000041	0.409364	0.069348	-0.000004
1010	1.0040e+02	9.9545	15.746234	0.000020	0.204682	0.034674	-0.000002
1011	1.0050e+02	9.9457	15.742975	0.000033	0.327491	0.055478	-0.000003
1012	1.0059e+02	9.9369	15.740531	0.000025	0.245618	0.041609	-0.000002
1013	1.0069e+02	9.9250	15.733199	0.000074	0.736855	0.124827	-0.000007
1014	1.0079e+02	9.9158	15.727089	0.000061	0.614045	0.104022	-0.000006
1015	1.0089e+02	9.9042	15.723830	0.000033	0.327491	0.055478	-0.000003
1016	1.0099e+02	9.8950	15.717720	0.000061	0.614045	0.104022	-0.000006
1017	1.0109e+02	9.8853	15.712017	0.000057	0.573109	0.097087	-0.000006
1018	1.0119e+02	9.8743	15.705499	0.000065	0.654982	0.110957	-0.000007
1019	1.0129e+02	9.8633	15.702241	0.000033	0.327491	0.055478	-0.000003
1020	1.0139e+02	9.8544	15.696538	0.000057	0.573109	0.097087	-0.000006
1021	1.0149e+02	9.8421	15.693279	0.000033	0.327491	0.055478	-0.000003
1022	1.0159e+02	9.8328	15.687576	0.000057	0.573109	0.097087	-0.000006
1023	1.0169e+02	9.8264	15.683910	0.000037	0.368427	0.062413	-0.000004
1024	1.0179e+02	9.8120	15.676985	0.000070	0.695918	0.117892	-0.000007
1025	1.0189e+02	9.8039	15.674949	0.000020	0.204682	0.034674	-0.000002
1026	1.0199e+02	9.7952	15.670468	0.000045	0.450300	0.076283	-0.000005
1027	1.0209e+02	9.7852	15.661506	0.000090	0.900600	0.152566	-0.000009
1028	1.0219e+02	9.7772	15.657433	0.000041	0.409364	0.069348	-0.000004
1029	1.0229e+02	9.7659	15.650101	0.000074	0.736855	0.124827	-0.000007
1030	1.0239e+02	9.7514	15.641139	0.000090	0.900600	0.152566	-0.000009
1031	1.0248e+02	9.7473	15.635029	0.000061	0.614045	0.104022	-0.000006
1032	1.0258e+02	9.7340	15.630141	0.000049	0.491236	0.083218	-0.000005
1033	1.0268e+02	9.7257	15.621587	0.000086	0.859664	0.145631	-0.000009
1034	1.0278e+02	9.7144	15.613847	0.000078	0.777791	0.131761	-0.000008
1035	1.0288e+02	9.7058	15.605700	0.000082	0.818727	0.138696	-0.000008
1036	1.0298e+02	9.6955	15.595110	0.000106	1.064345	0.180305	-0.000011
1037	1.0308e+02	9.6860	15.588999	0.000061	0.614045	0.104022	-0.000006
1038	1.0318e+02	9.6719	15.580038	0.000090	0.900600	0.152566	-0.000009
1039	1.0328e+02	9.6665	15.569447	0.000106	1.064345	0.180305	-0.000011
1040	1.0338e+02	9.6564	15.564152	0.000053	0.532173	0.090153	-0.000005
1041	1.0348e+02	9.6445	15.553561	0.000106	1.064345	0.180305	-0.000011
1042	1.0358e+02	9.6362	15.544599	0.000090	0.900600	0.152566	-0.000009
1043	1.0368e+02	9.6256	15.532786	0.000119	1.187155	0.201109	-0.000012
1044	1.0378e+02	9.6157	15.526676	0.000061	0.614045	0.104022	-0.000006
1045	1.0388e+02	9.6074	15.518529	0.000082	0.818727	0.138696	-0.000008
1046	1.0398e+02	9.5957	15.507124	0.000115	1.146218	0.194175	-0.000011
1047	1.0408e+02	9.5855	15.496125	0.000111	1.105282	0.187240	-0.000011
1048	1.0418e+02	9.5778	15.486349	0.000098	0.982473	0.166435	-0.000010
1049	1.0428e+02	9.5666	15.477795	0.000086	0.859664	0.145631	-0.000009
1050	1.0438e+02	9.5557	15.463945	0.000139	1.391836	0.235783	-0.000014
1051	1.0447e+02	9.5467	15.455391	0.000086	0.859664	0.145631	-0.000009
1052	1.0457e+02	9.5379	15.447244	0.000082	0.818727	0.138696	-0.000008
1053	1.0467e+02	9.5277	15.432987	0.000143	1.432773	0.242718	-0.000014
1054	1.0477e+02	9.5135	15.422396	0.000106	1.064345	0.180305	-0.000011
1055	1.0487e+02	9.5068	15.408139	0.000143	1.432773	0.242718	-0.000014
1056	1.0497e+02	9.4978	15.393475	0.000147	1.473709	0.249653	-0.000015
1057	1.0507e+02	9.4876	15.383291	0.000102	1.023409	0.173370	-0.000010
1058	1.0517e+02	9.4808	15.367405	0.000160	1.596518	0.270458	-0.000016
1059	1.0527e+02	9.4661	15.354777	0.000127	1.269027	0.214979	-0.000013
1060	1.0537e+02	9.4569	15.338891	0.000160	1.596518	0.270458	-0.000016
1061	1.0547e+02	9.4458	15.329522	0.000094	0.941536	0.159501	-0.000009
1062	1.0557e+02	9.4360	15.316895	0.000127	1.269027	0.214979	-0.000013
1063	1.0567e+02	9.4279	15.304674	0.000123	1.228091	0.208044	-0.000012
1064	1.0577e+02	9.4169	15.292047	0.000127	1.269027	0.214979	-0.000013
1065	1.0587e+02	9.4101	15.282271	0.000098	0.982473	0.166435	-0.000010
1066	1.0597e+02	9.3980	15.267606	0.000147	1.473709	0.249653	-0.000015
1067	1.0607e+02	9.3872	15.258645	0.000090	0.900600	0.152566	-0.000009
1068	1.0617e+02	9.3790	15.239907	0.000188	1.883073	0.319001	-0.000019
1069	1.0627e+02	9.3662	15.223613	0.000164	1.637455	0.277392	-0.000016
1070	1.0637e+02	9.3567	15.210171	0.000135	1.350900	0.228849	-0.000014
1071	1.0647e+02	9.3457	15.197951	0.000123	1.228091	0.208044	-0.000012
1072	1.0656e+02	9.3372	15.179213	0.000188	1.883073	0.319001	-0.000019
1073	1.0666e+02	9.3278	15.164549	0.000147	1.473709	0.249653	-0.000015
1074	1.0676e+02	9.3182	15.150292	0.000143	1.432773	0.242718	-0.000014
1075	1.0686e+02	9.3056	15.135627	0.000147	1.473709	0.249653	-0.000015
1076	1.0696e+02	9.3008	15.116889	0.000188	1.883073	0.319001	-0.000019
1077	1.0706e+02	9.2896	15.104262	0.000127	1.269027	0.214979	-0.000013
1078	1.0716e+02	9.2783	15.092042	0.000123	1.228091	0.208044	-0.000012
1079	1.0726e+02	9.2660	15.074118	0.000180	1.801200	0.305132	-0.000018
1080	1.0736e+02	9.2578	15.053344	0.000209	2.087755	0.353675	-0.000021
1081	1.0746e+02	9.2474	15.035421	0.000180	1.801200	0.305132	-0.000018
1082	1.0756e+02	9.2392	15.021979	0.000135	1.350900	0.228849	-0.000014
1083	1.0766e+02	9.2307	14.998760	0.000233	2.333373	0.395284	-0.000023
1084	1.0776e+02	9.2163	14.980837	0.000180	1.801200	0.305132	-0.000018
1085	1.0786e+02	9.2096	14.960470	0.000205	2.046818	0.346740	-0.000020
1086	1.0796e+02	9.1959	14.941325	0.000192	1.924009	0.325936	-0.000019
1087	1.0806e+02	9.1882	14.920958	0.000205	2.046818	0.346740	-0.000020
1088	1.0816e+02	9.1763	14.901405	0.000196	1.964946	0.332871	-0.000020
1089	1.0826e+02	9.1690	14.885926	0.000156	1.555582	0.263523	-0.000016
1090	1.0836e+02	9.1573	14.865559	0.000205	2.046818	0.346740	-0.000020
1091	1.0845e+02	9.1455	14.843563	0.000221	2.210564	0.374480	-0.000022
1092	1.0855e+02	9.1398	14.829306	0.000143	1.432773	0.242718	-0.000014
1093	1.0865e+02	9.1284	14.808938	0.000205	2.046818	0.346740	-0.000020
1094	1.0875e+02	9.1190	14.788979	0.000201	2.005882	0.339806	-0.000020
1095	1.0885e+02	9.1089	14.770648	0.000184	1.842136	0.312066	-0.000018
1096	1.0895e+02	9.0998	14.750281	0.000205	2.046818	0.346740	-0.000020
1097	1.0905e+02	9.0921	14.729914	0.000205	2.046818	0.346740	-0.000020
1098	1.0915e+02	9.0771	14.713620	0.000164	1.637455	0.277392	-0.000016
1099	1.0925e+02	9.0678	14.693661	0.000201	2.005882	0.339806	-0.000020
1100	1.0935e+02	9.0577	14.672479	0.000213	2.128691	0.360610	-0.000021
1101	1.0945e+02	9.0496	14.657814	0.000147	1.473709	0.249653	-0.000015
1102	1.0955e+02	9.0387	14.639077	0.000188	1.883073	0.319001	-0.000019
1103	1.0965e+02	9.0287	14.618709	0.000205	2.046818	0.346740	-0.000020
1104	1.0975e+02	9.0200	14.602008	0.000168	1.678391	0.284327	-0.000017
1105	1.0985e+02	9.0103	14.584085	0.000180	1.801200	0.305132	-0.000018
1106	1.0995e+02	9.0015	14.561274	0.000229	2.292436	0.388349	-0.000023
1107	1.1005e+02	8.9884	14.542536	0.000188	1.883073	0.319001	-0.000019
1108	1.1015e+02	8.9774	14.521355	0.000213	2.128691	0.360610	-0.000021
1109	1.1025e+02	8.9716	14.500580	0.000209	2.087755	0.353675	-0.000021
1110	1.1035e+02	8.9610	14.484286	0.000164	1.637455	0.277392	-0.000016
1111	1.1044e+02	8.9478	14.463105	0.000213	2.128691	0.360610	-0.000021
1112	1.1054e+02	8.9395	14.441923	0.000213	2.128691	0.360610	-0.000021
1113	1.1064e+02	8.9307	14.424814	0.000172	1.719327	0.291262	-0.000017
1114	1.1074e+02	8.9209	14.403225	0.000217	2.169627	0.367545	-0.000022
1115	1.1084e+02	8.9117	14.387339	0.000160	1.596518	0.270458	-0.000016
1116	1.1094e+02	8.9005	14.363713	0.000237	2.374309	0.402219	-0.000024
1117	1.1104e+02	8.8916	14.349863	0.000139	1.391836	0.235783	-0.000014
1118	1.1114e+02	8.8795	14.323386	0.000266	2.660864	0.450763	-0.000027
1119	1.1124e+02	8.8684	14.303426	0.000201	2.005882	0.339806	-0.000020
1120	1.1134e+02	8.8615	14.282652	0.000209	2.087755	0.353675	-0.000021
1121	1.1144e+02	8.8501	14.264321	0.000184	1.842136	0.312066	-0.000018
1122	1.1154e+02	8.8383	14.243547	0.000209	2.087755	0.353675	-0.000021
1123	1.1164e+02	8.8324	14.227253	0.000164	1.637455	0.277392	-0.000016
1124	1.1174e+02	8.8208	14.206071	0.000213	2.128691	0.360610	-0.000021
1125	1.1184e+02	8.8110	14.185297	0.000209	2.087755	0.353675	-0.000021
1126	1.1194e+02	8.8004	14.168596	0.000168	1.678391	0.284327	-0.000017
1127	1.1204e+02	8.7896	14.151080	0.000176	1.760264	0.298197	-0.000018
1128	1.1214e+02	8.7810	14.125010	0.000262	2.619927	0.443828	-0.000026
1129	1.1224e+02	8.7704	14.108309	0.000168	1.678391	0.284327	-0.000017
1130	1.1234e+02	8.7617	14.089572	0.000188	1.883073	0.319001	-0.000019
1131	1.1244e+02	8.7507	14.066353	0.000233	2.333373	0.395284	-0.000023
1132	1.1253e+02	8.7415	14.045986	0.000205	2.046818	0.346740	-0.000020
1133	1.1263e+02	8.7339	14.027655	0.000184	1.842136	0.312066	-0.000018
1134	1.1273e+02	8.7207	14.003622	0.000242	2.415246	0.409154	-0.000024
1135	1.1283e+02	8.7115	13.984477	0.000192	1.924009	0.325936	-0.000019
1136	1.1293e+02	8.6997	13.960444	0.000242	2.415246	0.409154	-0.000024
1137	1.1303e+02	8.6939	13.943336	0.000172	1.719327	0.291262	-0.000017
1138	1.1313e+02	8.6817	13.924598	0.000188	1.883073	0.319001	-0.000019
1139	1.1323e+02	8.6725	13.901787	0.000229	2.292436	0.388349	-0.000023
1140	1.1333e+02	8.6633	13.880605	0.000213	2.128691	0.360610	-0.000021
1141	1.1343e+02	8.6523	13.860238	0.000205	2.046818	0.346740	-0.000020
1142	1.1353e+02	8.6420	13.841907	0.000184	1.842136	0.312066	-0.000018
1143	1.1363e+02	8.6346	13.819503	0.000225	2.251500	0.381414	-0.000023
1144	1.1373e+02	8.6222	13.797100	0.000225	2.251500	0.381414	-0.000023
1145	1.1383e+02	8.6133	13.777547	0.000196	1.964946	0.332871	-0.000020
1146	1.1393e+02	8.6002	13.754736	0.000229	2.292436	0.388349	-0.000023
1147	1.1403e+02	8.5910	13.730703	0.000242	2.415246	0.409154	-0.000024
1148	1.1413e+02	8.5810	13.706670	0.000242	2.415246	0.409154	-0.000024
1149	1.1423e+02	8.5721	13.684266	0.000225	2.251500	0.381414	-0.000023
1150	1.1433e+02	8.5609	13.658196	0.000262	2.619927	0.443828	-0.000026
1151	1.1442e+02	8.5519	13.638236	0.000201	2.005882	0.339806	-0.000020
1152	1.1452e+02	8.5436	13.616647	0.000217	2.169627	0.367545	-0.000022
1153	1.1462e+02	8.5325	13.598316	0.000184	1.842136	0.312066	-0.000018
1154	1.1472e+02	8.5233	13.574691	0.000237	2.374309	0.402219	-0.000024
1155	1.1482e+02	8.5128	13.551879	0.000229	2.292436	0.388349	-0.000023
1156	1.1492e+02	8.5010	13.533142	0.000188	1.883073	0.319001	-0.000019
1157	1.1502e+02	8.4941	13.511552	0.000217	2.169627	0.367545	-0.000022
1158	1.1512e+02	8.4830	13.489149	0.000225	2.251500	0.381414	-0.000023
1159	1.1522e+02	8.4735	13.468374	0.000209	2.087755	0.353675	-0.000021
1160	1.1532e+02	8.4636	13.443526	0.000250	2.497118	0.423023	-0.000025
1161	1.1542e+02	8.4540	13.424381	0.000192	1.924009	0.325936	-0.000019
1162	1.1552e+02	8.4444	13.401163	0.000233	2.333373	0.395284	-0.000023
1163	1.1562e+02	8.4319	13.382018	0.000192	1.924009	0.325936	-0.000019
1164	1.1572e+02	8.4218	13.362465	0.000196	1.964946	0.332871	-0.000020
1165	1.1582e+02	8.4122	13.342098	0.000205	2.046818	0.346740	-0.000020
1166	1.1592e+02	8.4025	13.320101	0.000221	2.210564	0.374480	-0.000022
1167	1.1602e+02	8.3925	13.303808	0.000164	1.637455	0.277392	-0.000016
1168	1.1612e+02	8.3845	13.284255	0.000196	1.964946	0.332871	-0.000020
1169	1.1622e+02	8.3765	13.264703	0.000196	1.964946	0.332871	-0.000020
1170	1.1632e+02	8.3618	13.243928	0.000209	2.087755	0.353675	-0.000021
1171	1.1642e+02	8.3533	13.222747	0.000213	2.128691	0.360610	-0.000021
1172	1.1651e+02	8.3459	13.203601	0.000192	1.924009	0.325936	-0.000019
1173	1.1661e+02	8.3327	13.179161	0.000246	2.456182	0.416088	-0.000025
1174	1.1671e+02	8.3248	13.159201	0.000201	2.005882	0.339806	-0.000020
1175	1.1681e+02	8.3146	13.141278	0.000180	1.801200	0.305132	-0.000018
1176	1.1691e+02	8.3019	13.118060	0.000233	2.333373	0.395284	-0.000023
1177	1.1701e+02	8.2959	13.098507	0.000196	1.964946	0.332871	-0.000020
1178	1.1711e+02	8.2829	13.078140	0.000205	2.046818	0.346740	-0.000020
1179	1.1721e+02	8.2725	13.054107	0.000242	2.415246	0.409154	-0.000024
1180	1.1731e+02	8.2651	13.034147	0.000201	2.005882	0.339806	-0.000020
1181	1.1741e+02	8.2524	13.009706	0.000246	2.456182	0.416088	-0.000025
1182	1.1751e+02	8.2440	12.987710	0.000221	2.210564	0.374480	-0.000022
1183	1.1761e+02	8.2324	12.967343	0.000205	2.046818	0.346740	-0.000020
1184	1.1771e+02	8.2255	12.943717	0.000237	2.374309	0.402219	-0.000024
1185	1.1781e+02	8.2151	12.925794	0.000180	1.801200	0.305132	-0.000018
1186	1.1791e+02	8.2053	12.902983	0.000229	2.292436	0.388349	-0.000023
1187	1.1801e+02	8.1920	12.881394	0.000217	2.169627	0.367545	-0.000022
1188	1.1811e+02	8.1843	12.860212	0.000213	2.128691	0.360610	-0.000021
1189	1.1821e+02	8.1717	12.841067	0.000192	1.924009	0.325936	-0.000019
1190	1.1831e+02	8.1632	12.815811	0.000254	2.538055	0.429958	-0.000025
1191	1.1841e+02	8.1533	12.793000	0.000229	2.292436	0.388349	-0.000023
1192	1.1850e+02	8.1477	12.773448	0.000196	1.964946	0.332871	-0.000020
1193	1.1860e+02	8.1359	12.749822	0.000237	2.374309	0.402219	-0.000024
1194	1.1870e+02	8.1231	12.726603	0.000233	2.333373	0.395284	-0.000023
1195	1.1880e+02	8.1128	12.707051	0.000196	1.964946	0.332871	-0.000020
1196	1.1890e+02	8.1037	12.683832	0.000233	2.333373	0.395284	-0.000023
1197	1.1900e+02	8.0943	12.660614	0.000233	2.333373	0.395284	-0.000023
1198	1.1910e+02	8.0840	12.640654	0.000201	2.005882	0.339806	-0.000020
1199	1.1920e+02	8.0737	12.620287	0.000205	2.046818	0.346740	-0.000020
1200	1.1930e+02	8.0632	12.594624	0.000258	2.578991	0.436893	-0.000026
1201	1.1940e+02	8.0543	12.575479	0.000192	1.924009	0.325936	-0.000019
1202	1.1950e+02	8.0445	12.551039	0.000246	2.456182	0.416088	-0.000025
1203	1.1960e+02	8.0359	12.534338	0.000168	1.678391	0.284327	-0.000017
1204	1.1970e+02	8.0251	12.505009	0.000295	2.947418	0.499306	-0.000029
1205	1.1980e+02	8.0152	12.487493	0.000176	1.760264	0.298197	-0.000018
1206	1.1990e+02	8.0051	12.466719	0.000209	2.087755	0.353675	-0.000021
1207	1.2000e+02	7.9961	12.444722	0.000221	2.210564	0.374480	-0.000022
1208	1.2010e+02	7.9869	12.419467	0.000254	2.538055	0.429958	-0.000025
1209	1.2020e+02	7.9747	12.392582	0.000270	2.701800	0.457697	-0.000027
1210	1.2030e+02	7.9639	12.370179	0.000225	2.251500	0.381414	-0.000023
1211	1.2039e+02	7.9580	12.350219	0.000201	2.005882	0.339806	-0.000020
1212	1.2049e+02	7.9443	12.326186	0.000242	2.415246	0.409154	-0.000024
1213	1.2059e+02	7.9337	12.303782	0.000225	2.251500	0.381414	-0.000023
1214	1.2069e+02	7.9250	12.279341	0.000246	2.456182	0.416088	-0.000025
1215	1.2079e+02	7.9147	12.260196	0.000192	1.924009	0.325936	-0.000019
1216	1.2089e+02	7.9065	12.239422	0.000209	2.087755	0.353675	-0.000021
1217	1.2099e+02	7.8973	12.210093	0.000295	2.947418	0.499306	-0.000029
1218	1.2109e+02	7.8838	12.190948	0.000192	1.924009	0.325936	-0.000019
1219	1.2119e+02	7.8746	12.169766	0.000213	2.128691	0.360610	-0.000021
1220	1.2129e+02	7.8660	12.145326	0.000246	2.456182	0.416088	-0.000025
1221	1.2139e+02	7.8570	12.121292	0.000242	2.415246	0.409154	-0.000024
1222	1.2149e+02	7.8442	12.096037	0.000254	2.538055	0.429958	-0.000025
1223	1.2159e+02	7.8359	12.077707	0.000184	1.842136	0.312066	-0.000018
1224	1.2169e+02	7.8262	12.049193	0.000287	2.865546	0.485437	-0.000029
1225	1.2179e+02	7.8149	12.029640	0.000196	1.964946	0.332871	-0.000020
1226	1.2189e+02	7.8071	12.006014	0.000237	2.374309	0.402219	-0.000024
1227	1.2199e+02	7.7975	11.981981	0.000242	2.415246	0.409154	-0.000024
1228	1.2209e+02	7.7856	11.958763	0.000233	2.333373	0.395284	-0.000023
1229	1.2219e+02	7.7776	11.937988	0.000209	2.087755	0.353675	-0.000021
1230	1.2229e+02	7.7657	11.917214	0.000209	2.087755	0.353675	-0.000021
1231	1.2239e+02	7.7555	11.896847	0.000205	2.046818	0.346740	-0.000020
1232	1.2248e+02	7.7441	11.875665	0.000213	2.128691	0.360610	-0.000021
1233	1.2258e+02	7.7379	11.853668	0.000221	2.210564	0.374480	-0.000022
1234	1.2268e+02	7.7261	11.832894	0.000209	2.087755	0.353675	-0.000021
1235	1.2278e+02	7.7197	11.811305	0.000217	2.169627	0.367545	-0.000022
1236	1.2288e+02	7.7066	11.790530	0.000209	2.087755	0.353675	-0.000021
1237	1.2298e+02	7.6971	11.766497	0.000242	2.415246	0.409154	-0.000024
1238	1.2308e+02	7.6865	11.745722	0.000209	2.087755	0.353675	-0.000021
1239	1.2318e+02	7.6758	11.721282	0.000246	2.456182	0.416088	-0.000025
1240	1.2328e+02	7.6682	11.699285	0.000221	2.210564	0.374480	-0.000022
1241	1.2338e+02	7.6563	11.673215	0.000262	2.619927	0.443828	-0.000026
1242	1.2348e+02	7.6465	11.646738	0.000266	2.660864	0.450763	-0.000027
1243	1.2358e+02	7.6403	11.629223	0.000176	1.760264	0.298197	-0.000018
1244	1.2368e+02	7.6283	11.606004	0.000233	2.333373	0.395284	-0.000023
1245	1.2378e+02	7.6157	11.583193	0.000229	2.292436	0.388349	-0.000023
1246	1.2388e+02	7.6080	11.557123	0.000262	2.619927	0.443828	-0.000026
1247	1.2398e+02	7.5967	11.531053	0.000262	2.619927	0.443828	-0.000026
1248	1.2408e+02	7.5854	11.511093	0.000201	2.005882	0.339806	-0.000020
1249	1.2418e+02	7.5772	11.486245	0.000250	2.497118	0.423023	-0.000025
1250	1.2428e+02	7.5697	11.456509	0.000299	2.988355	0.506241	-0.000030
1251	1.2438e+02	7.5581	11.431254	0.000254	2.538055	0.429958	-0.000025
1252	1.2447e+02	7.5473	11.410887	0.000205	2.046818	0.346740	-0.000020
1253	1.2457e+02	7.5375	11.383188	0.000278	2.783673	0.471567	-0.000028
1254	1.2467e+02	7.5262	11.356303	0.000270	2.701800	0.457697	-0.000027
1255	1.2477e+02	7.5153	11.335121	0.000213	2.128691	0.360610	-0.000021
1256	1.2487e+02	7.5098	11.306607	0.000287	2.865546	0.485437	-0.000029
1257	1.2497e+02	7.5014	11.278093	0.000287	2.865546	0.485437	-0.000029
1258	1.2507e+02	7.4856	11.257319	0.000209	2.087755	0.353675	-0.000021
1259	1.2517e+02	7.4784	11.231656	0.000258	2.578991	0.436893	-0.000026
1260	1.2527e+02	7.4688	11.207623	0.000242	2.415246	0.409154	-0.000024
1261	1.2537e+02	7.4566	11.183590	0.000242	2.415246	0.409154	-0.000024
1262	1.2547e+02	7.4505	11.157520	0.000262	2.619927	0.443828	-0.000026
1263	1.2557e+02	7.4374	11.134709	0.000229	2.292436	0.388349	-0.000023
1264	1.2567e+02	7.4255	11.112712	0.000221	2.210564	0.374480	-0.000022
1265	1.2577e+02	7.4209	11.086642	0.000262	2.619927	0.443828	-0.000026
1266	1.2587e+02	7.4088	11.060980	0.000258	2.578991	0.436893	-0.000026
1267	1.2597e+02	7.3962	11.036946	0.000242	2.415246	0.409154	-0.000024
1268	1.2607e+02	7.3900	11.012099	0.000250	2.497118	0.423023	-0.000025
1269	1.2617e+02	7.3783	10.988473	0.000237	2.374309	0.402219	-0.000024
1270	1.2627e+02	7.3682	10.966476	0.000221	2.210564	0.374480	-0.000022
1271	1.2636e+02	7.3598	10.939999	0.000266	2.660864	0.450763	-0.000027
1272	1.2646e+02	7.3476	10.920446	0.000196	1.964946	0.332871	-0.000020
1273	1.2656e+02	7.3382	10.893562	0.000270	2.701800	0.457697	-0.000027
1274	1.2666e+02	7.3295	10.865455	0.000282	2.824609	0.478502	-0.000028
1275	1.2676e+02	7.3175	10.846717	0.000188	1.883073	0.319001	-0.000019
1276	1.2686e+02	7.3067	10.816981	0.000299	2.988355	0.506241	-0.000030
1277	1.2696e+02	7.2942	10.797836	0.000192	1.924009	0.325936	-0.000019
1278	1.2706e+02	7.2906	10.772581	0.000254	2.538055	0.429958	-0.000025
1279	1.2716e+02	7.2808	10.751399	0.000213	2.128691	0.360610	-0.000021
1280	1.2726e+02	7.2682	10.722071	0.000295	2.947418	0.499306	-0.000029
1281	1.2736e+02	7.2595	10.702518	0.000196	1.964946	0.332871	-0.000020
1282	1.2746e+02	7.2486	10.672782	0.000299	2.988355	0.506241	-0.000030
1283	1.2756e+02	7.2399	10.649156	0.000237	2.374309	0.402219	-0.000024
1284	1.2766e+02	7.2305	10.625938	0.000233	2.333373	0.395284	-0.000023
1285	1.2776e+02	7.2175	10.597424	0.000287	2.865546	0.485437	-0.000029
1286	1.2786e+02	7.2096	10.571761	0.000258	2.578991	0.436893	-0.000026
1287	1.2796e+02	7.2014	10.546099	0.000258	2.578991	0.436893	-0.000026
1288	1.2806e+02	7.1886	10.522065	0.000242	2.415246	0.409154	-0.000024
1289	1.2816e+02	7.1781	10.498847	0.000233	2.333373	0.395284	-0.000023
1290	1.2826e+02	7.1694	10.474814	0.000242	2.415246	0.409154	-0.000024
1291	1.2835e+02	7.1577	10.451595	0.000233	2.333373	0.395284	-0.000023
1292	1.2845e+02	7.1497	10.428377	0.000233	2.333373	0.395284	-0.000023
1293	1.2855e+02	7.1393	10.403529	0.000250	2.497118	0.423023	-0.000025
1294	1.2865e+02	7.1304	10.378274	0.000254	2.538055	0.429958	-0.000025
1295	1.2875e+02	7.1200	10.357906	0.000205	2.046818	0.346740	-0.000020
1296	1.2885e+02	7.1104	10.335503	0.000225	2.251500	0.381414	-0.000023
1297	1.2895e+02	7.0994	10.306174	0.000295	2.947418	0.499306	-0.000029
1298	1.2905e+02	7.0927	10.283363	0.000229	2.292436	0.388349	-0.000023
1299	1.2915e+02	7.0788	10.259737	0.000237	2.374309	0.402219	-0.000024
1300	1.2925e+02	7.0690	10.233667	0.000262	2.619927	0.443828	-0.000026
1301	1.2935e+02	7.0608	10.208004	0.000258	2.578991	0.436893	-0.000026
1302	1.2945e+02	7.0496	10.184378	0.000237	2.374309	0.402219	-0.000024
1303	1.2955e+02	7.0380	10.163197	0.000213	2.128691	0.360610	-0.000021
1304	1.2965e+02	7.0298	10.135497	0.000278	2.783673	0.471567	-0.000028
1305	1.2975e+02	7.0209	10.111871	0.000237	2.374309	0.402219	-0.000024
1306	1.2985e+02	7.0100	10.084987	0.000270	2.701800	0.457697	-0.000027
1307	1.2995e+02	6.9985	10.063398	0.000217	2.169627	0.367545	-0.000022
1308	1.3005e+02	6.9903	10.039365	0.000242	2.415246	0.409154	-0.000024
1309	1.3015e+02	6.9805	10.012480	0.000270	2.701800	0.457697	-0.000027
1310	1.3025e+02	6.9695	9.989261	0.000233	2.333373	0.395284	-0.000023
1311	1.3034e+02	6.9610	9.963191	0.000262	2.619927	0.443828	-0.000026
1312	1.3044e+02	6.9489	9.941195	0.000221	2.210564	0.374480	-0.000022
1313	1.3054e+02	6.9409	9.909015	0.000323	3.233973	0.547850	-0.000032
1314	1.3064e+02	6.9314	9.883760	0.000254	2.538055	0.429958	-0.000025
1315	1.3074e+02	6.9234	9.858504	0.000254	2.538055	0.429958	-0.000025
1316	1.3084e+02	6.9109	9.831620	0.000270	2.701800	0.457697	-0.000027
1317	1.3094e+02	6.8994	9.806772	0.000250	2.497118	0.423023	-0.000025
1318	1.3104e+02	6.8880	9.777851	0.000291	2.906482	0.492371	-0.000029
1319	1.3114e+02	6.8815	9.752595	0.000254	2.538055	0.429958	-0.000025
1320	1.3124e+02	6.8707	9.726118	0.000266	2.660864	0.450763	-0.000027
1321	1.3134e+02	6.8610	9.702085	0.000242	2.415246	0.409154	-0.000024
1322	1.3144e+02	6.8494	9.678459	0.000237	2.374309	0.402219	-0.000024
1323	1.3154e+02	6.8380	9.653204	0.000254	2.538055	0.429958	-0.000025
1324	1.3164e+02	6.8302	9.629985	0.000233	2.333373	0.395284	-0.000023
1325	1.3174e+02	6.8214	9.603915	0.000262	2.619927	0.443828	-0.000026
1326	1.3184e+02	6.8139	9.577031	0.000270	2.701800	0.457697	-0.000027
1327	1.3194e+02	6.8011	9.555034	0.000221	2.210564	0.374480	-0.000022
1328	1.3204e+02	6.7912	9.528557	0.000266	2.660864	0.450763	-0.000027
1329	1.3214e+02	6.7799	9.503302	0.000254	2.538055	0.429958	-0.000025
1330	1.3224e+02	6.7706	9.477232	0.000262	2.619927	0.443828	-0.000026
1331	1.3234e+02	6.7623	9.451569	0.000258	2.578991	0.436893	-0.000026
1332	1.3243e+02	6.7516	9.427943	0.000237	2.374309	0.402219	-0.000024
1333	1.3253e+02	6.7405	9.405540	0.000225	2.251500	0.381414	-0.000023
1334	1.3263e+02	6.7324	9.383543	0.000221	2.210564	0.374480	-0.000022
1335	1.3273e+02	6.7228	9.361547	0.000221	2.210564	0.374480	-0.000022
1336	1.3283e+02	6.7115	9.333440	0.000282	2.824609	0.478502	-0.000028
1337	1.3293e+02	6.7031	9.316739	0.000168	1.678391	0.284327	-0.000017
1338	1.3303e+02	6.6897	9.291484	0.000254	2.538055	0.429958	-0.000025
1339	1.3313e+02	6.6811	9.269080	0.000225	2.251500	0.381414	-0.000023
1340	1.3323e+02	6.6714	9.242195	0.000270	2.701800	0.457697	-0.000027
1341	1.3333e+02	6.6595	9.219791	0.000225	2.251500	0.381414	-0.000023
1342	1.3343e+02	6.6500	9.196980	0.000229	2.292436	0.388349	-0.000023
1343	1.3353e+02	6.6418	9.169281	0.000278	2.783673	0.471567	-0.000028
1344	1.3363e+02	6.6292	9.147284	0.000221	2.210564	0.374480	-0.000022
1345	1.3373e+02	6.6238	9.121622	0.000258	2.578991	0.436893	-0.000026
1346	1.3383e+02	6.6109	9.095552	0.000262	2.619927	0.443828	-0.000026
1347	1.3393e+02	6.6009	9.071111	0.000246	2.456182	0.416088	-0.000025
1348	1.3403e+02	6.5932	9.044634	0.000266	2.660864	0.450763	-0.000027
1349	1.3413e+02	6.5814	9.019786	0.000250	2.497118	0.423023	-0.000025
1350	1.3423e+02	6.5723	8.996160	0.000237	2.374309	0.402219	-0.000024
1351	1.3432e+02	6.5630	8.972534	0.000237	2.374309	0.402219	-0.000024
1352	1.3442e+02	6.5513	8.947279	0.000254	2.538055	0.429958	-0.000025
1353	1.3452e+02	6.5411	8.923246	0.000242	2.415246	0.409154	-0.000024
1354	1.3462e+02	6.5325	8.898398	0.000250	2.497118	0.423023	-0.000025
1355	1.3472e+02	6.5229	8.872328	0.000262	2.619927	0.443828	-0.000026
1356	1.3482e+02	6.5107	8.849110	0.000233	2.333373	0.395284	-0.000023
1357	1.3492e+02	6.5035	8.823040	0.000262	2.619927	0.443828	-0.000026
1358	1.3502e+02	6.4930	8.796155	0.000270	2.701800	0.457697	-0.000027
1359	1.3512e+02	6.4822	8.772122	0.000242	2.415246	0.409154	-0.000024
1360	1.3522e+02	6.4732	8.745645	0.000266	2.660864	0.450763	-0.000027
1361	1.3532e+02	6.4629	8.722019	0.000237	2.374309	0.402219	-0.000024
1362	1.3542e+02	6.4530	8.693912	0.000282	2.824609	0.478502	-0.000028
1363	1.3552e+02	6.4443	8.669472	0.000246	2.456182	0.416088	-0.000025
1364	1.3562e+02	6.4336	8.645031	0.000246	2.456182	0.416088	-0.000025
1365	1.3572e+02	6.4240	8.621812	0.000233	2.333373	0.395284	-0.000023
1366	1.3582e+02	6.4122	8.592484	0.000295	2.947418	0.499306	-0.000029
1367	1.3592e+02	6.4033	8.568858	0.000237	2.374309	0.402219	-0.000024
1368	1.3602e+02	6.3948	8.546047	0.000229	2.292436	0.388349	-0.000023
1369	1.3612e+02	6.3830	8.517940	0.000282	2.824609	0.478502	-0.000028
1370	1.3622e+02	6.3714	8.493092	0.000250	2.497118	0.423023	-0.000025
1371	1.3631e+02	6.3604	8.470281	0.000229	2.292436	0.388349	-0.000023
1372	1.3641e+02	6.3540	8.444618	0.000258	2.578991	0.436893	-0.000026
1373	1.3651e+02	6.3442	8.418956	0.000258	2.578991	0.436893	-0.000026
1374	1.3661e+02	6.3343	8.392886	0.000262	2.619927	0.443828	-0.000026
1375	1.3671e+02	6.3281	8.368445	0.000246	2.456182	0.416088	-0.000025
1376	1.3681e+02	6.3143	8.341968	0.000266	2.660864	0.450763	-0.000027
1377	1.3691e+02	6.3005	8.312639	0.000295	2.947418	0.499306	-0.000029
1378	1.3701e+02	6.2937	8.288606	0.000242	2.415246	0.409154	-0.000024
1379	1.3711e+02	6.2859	8.262944	0.000258	2.578991	0.436893	-0.000026
1380	1.3721e+02	6.2745	8.239725	0.000233	2.333373	0.395284	-0.000023
1381	1.3731e+02	6.2654	8.212841	0.000270	2.701800	0.457697	-0.000027
1382	1.3741e+02	6.2554	8.186363	0.000266	2.660864	0.450763	-0.000027
1383	1.3751e+02	6.2435	8.162737	0.000237	2.374309	0.402219	-0.000024
1384	1.3761e+02	6.2359	8.134223	0.000287	2.865546	0.485437	-0.000029
1385	1.3771e+02	6.2235	8.114671	0.000196	1.964946	0.332871	-0.000020
1386	1.3781e+02	6.2158	8.084120	0.000307	3.070227	0.520111	-0.000031
1387	1.3791e+02	6.2080	8.062938	0.000213	2.128691	0.360610	-0.000021
1388	1.3801e+02	6.1965	8.032795	0.000303	3.029291	0.513176	-0.000030
1389	1.3811e+02	6.1858	8.005503	0.000274	2.742736	0.464632	-0.000027
1390	1.3821e+02	6.1741	7.981063	0.000246	2.456182	0.416088	-0.000025
1391	1.3831e+02	6.1665	7.954993	0.000262	2.619927	0.443828	-0.000026
1392	1.3840e+02	6.1556	7.927293	0.000278	2.783673	0.471567	-0.000028
1393	1.3850e+02	6.1469	7.901223	0.000262	2.619927	0.443828	-0.000026
1394	1.3860e+02	6.1346	7.875968	0.000254	2.538055	0.429958	-0.000025
1395	1.3870e+02	6.1240	7.849084	0.000270	2.701800	0.457697	-0.000027
1396	1.3880e+02	6.1149	7.824643	0.000246	2.456182	0.416088	-0.000025
1397	1.3890e+02	6.1041	7.798573	0.000262	2.619927	0.443828	-0.000026
1398	1.3900e+02	6.0957	7.774540	0.000242	2.415246	0.409154	-0.000024
1399	1.3910e+02	6.0867	7.750914	0.000237	2.374309	0.402219	-0.000024
1400	1.3920e+02	6.0748	7.731769	0.000192	1.924009	0.325936	-0.000019
1401	1.3930e+02	6.0663	7.702848	0.000291	2.906482	0.492371	-0.000029
1402	1.3940e+02	6.0566	7.682073	0.000209	2.087755	0.353675	-0.000021
1403	1.3950e+02	6.0437	7.658447	0.000237	2.374309	0.402219	-0.000024
1404	1.3960e+02	6.0348	7.628304	0.000303	3.029291	0.513176	-0.000030
1405	1.3970e+02	6.0252	7.604271	0.000242	2.415246	0.409154	-0.000024
1406	1.3980e+02	6.0139	7.573720	0.000307	3.070227	0.520111	-0.000031
1407	1.3990e+02	6.0085	7.547243	0.000266	2.660864	0.450763	-0.000027
1408	1.4000e+02	5.9961	7.523617	0.000237	2.374309	0.402219	-0.000024
1409	1.4010e+02	5.9876	7.493066	0.000307	3.070227	0.520111	-0.000031
1410	1.4020e+02	5.9742	7.469848	0.000233	2.333373	0.395284	-0.000023
1411	1.4029e+02	5.9669	7.442963	0.000270	2.701800	0.457697	-0.000027
1412	1.4039e+02	5.9579	7.418115	0.000250	2.497118	0.423023	-0.000025
1413	1.4049e+02	5.9460	7.393267	0.000250	2.497118	0.423023	-0.000025
1414	1.4059e+02	5.9341	7.368419	0.000250	2.497118	0.423023	-0.000025
1415	1.4069e+02	5.9246	7.340313	0.000282	2.824609	0.478502	-0.000028
1416	1.4079e+02	5.9177	7.313836	0.000266	2.660864	0.450763	-0.000027
1417	1.4089e+02	5.9052	7.284914	0.000291	2.906482	0.492371	-0.000029
1418	1.4099e+02	5.8970	7.256808	0.000282	2.824609	0.478502	-0.000028
1419	1.4109e+02	5.8873	7.225442	0.000315	3.152100	0.533980	-0.000032
1420	1.4119e+02	5.8755	7.198965	0.000266	2.660864	0.450763	-0.000027
1421	1.4129e+02	5.8656	7.168414	0.000307	3.070227	0.520111	-0.000031
1422	1.4139e+02	5.8547	7.141122	0.000274	2.742736	0.464632	-0.000027
1423	1.4149e+02	5.8462	7.112608	0.000287	2.865546	0.485437	-0.000029
1424	1.4159e+02	5.8360	7.082058	0.000307	3.070227	0.520111	-0.000031
1425	1.4169e+02	5.8254	7.057617	0.000246	2.456182	0.416088	-0.000025
1426	1.4179e+02	5.8157	7.027881	0.000299	2.988355	0.506241	-0.000030
1427	1.4189e+02	5.8077	7.002218	0.000258	2.578991	0.436893	-0.000026
1428	1.4199e+02	5.8010	6.975334	0.000270	2.701800	0.457697	-0.000027
1429	1.4209e+02	5.7871	6.946413	0.000291	2.906482	0.492371	-0.000029
1430	1.4219e+02	5.7761	6.920750	0.000258	2.578991	0.436893	-0.000026
1431	1.4228e+02	5.7681	6.893865	0.000270	2.701800	0.457697	-0.000027
1432	1.4238e+02	5.7578	6.866166	0.000278	2.783673	0.471567	-0.000028
1433	1.4248e+02	5.7482	6.840503	0.000258	2.578991	0.436893	-0.000026
1434	1.4258e+02	5.7353	6.812804	0.000278	2.783673	0.471567	-0.000028
1435	1.4268e+02	5.7244	6.788364	0.000246	2.456182	0.416088	-0.000025
1436	1.4278e+02	5.7171	6.758220	0.000303	3.029291	0.513176	-0.000030
1437	1.4288e+02	5.7066	6.730928	0.000274	2.742736	0.464632	-0.000027
1438	1.4298e+02	5.6997	6.706895	0.000242	2.415246	0.409154	-0.000024
1439	1.4308e+02	5.6861	6.673900	0.000332	3.315846	0.561719	-0.000033
1440	1.4318e+02	5.6780	6.651089	0.000229	2.292436	0.388349	-0.000023
1441	1.4328e+02	5.6658	6.625019	0.000262	2.619927	0.443828	-0.000026
1442	1.4338e+02	5.6579	6.596505	0.000287	2.865546	0.485437	-0.000029
1443	1.4348e+02	5.6483	6.570435	0.000262	2.619927	0.443828	-0.000026
1444	1.4358e+02	5.6362	6.543551	0.000270	2.701800	0.457697	-0.000027
1445	1.4368e+02	5.6278	6.515444	0.000282	2.824609	0.478502	-0.000028
1446	1.4378e+02	5.6187	6.488967	0.000266	2.660864	0.450763	-0.000027
1447	1.4388e+02	5.6070	6.458823	0.000303	3.029291	0.513176	-0.000030
1448	1.4398e+02	5.5994	6.431124	0.000278	2.783673	0.471567	-0.000028
1449	1.4408e+02	5.5863	6.403832	0.000274	2.742736	0.464632	-0.000027
1450	1.4418e+02	5.5782	6.379799	0.000242	2.415246	0.409154	-0.000024
1451	1.4428e+02	5.5704	6.349248	0.000307	3.070227	0.520111	-0.000031
1452	1.4437e+02	5.5572	6.321549	0.000278	2.783673	0.471567	-0.000028
1453	1.4447e+02	5.5457	6.295072	0.000266	2.660864	0.450763	-0.000027
1454	1.4457e+02	5.5405	6.267372	0.000278	2.783673	0.471567	-0.000028
1455	1.4467e+02	5.5277	6.241710	0.000258	2.578991	0.436893	-0.000026
1456	1.4477e+02	5.5186	6.212381	0.000295	2.947418	0.499306	-0.000029
1457	1.4487e+02	5.5062	6.185904	0.000266	2.660864	0.450763	-0.000027
1458	1.4497e+02	5.4981	6.159019	0.000270	2.701800	0.457697	-0.000027
1459	1.4507e+02	5.4882	6.128061	0.000311	3.111164	0.527045	-0.000031
1460	1.4517e+02	5.4810	6.104435	0.000237	2.374309	0.402219	-0.000024
1461	1.4527e+02	5.4684	6.077144	0.000274	2.742736	0.464632	-0.000027
1462	1.4537e+02	5.4583	6.045778	0.000315	3.152100	0.533980	-0.000032
1463	1.4547e+02	5.4472	6.019301	0.000266	2.660864	0.450763	-0.000027
1464	1.4557e+02	5.4391	5.992824	0.000266	2.660864	0.450763	-0.000027
1465	1.4567e+02	5.4305	5.966346	0.000266	2.660864	0.450763	-0.000027
1466	1.4577e+02	5.4189	5.934166	0.000323	3.233973	0.547850	-0.000032
1467	1.4587e+02	5.4093	5.913392	0.000209	2.087755	0.353675	-0.000021
1468	1.4597e+02	5.3982	5.879582	0.000340	3.397718	0.575589	-0.000034
1469	1.4607e+02	5.3884	5.858808	0.000209	2.087755	0.353675	-0.000021
1470	1.4617e+02	5.3774	5.831516	0.000274	2.742736	0.464632	-0.000027
1471	1.4626e+02	5.3704	5.800151	0.000315	3.152100	0.533980	-0.000032
1472	1.4636e+02	5.3572	5.773266	0.000270	2.701800	0.457697	-0.000027
1473	1.4646e+02	5.3481	5.744345	0.000291	2.906482	0.492371	-0.000029
1474	1.4656e+02	5.3380	5.719497	0.000250	2.497118	0.423023	-0.000025
1475	1.4666e+02	5.3304	5.693427	0.000262	2.619927	0.443828	-0.000026
1476	1.4676e+02	5.3210	5.664098	0.000295	2.947418	0.499306	-0.000029
1477	1.4686e+02	5.3060	5.636399	0.000278	2.783673	0.471567	-0.000028
1478	1.4696e+02	5.2993	5.609514	0.000270	2.701800	0.457697	-0.000027
1479	1.4706e+02	5.2905	5.580593	0.000291	2.906482	0.492371	-0.000029
1480	1.4716e+02	5.2813	5.548820	0.000319	3.193036	0.540915	-0.000032
1481	1.4726e+02	5.2666	5.522343	0.000266	2.660864	0.450763	-0.000027
1482	1.4736e+02	5.2595	5.490163	0.000323	3.233973	0.547850	-0.000032
1483	1.4746e+02	5.2468	5.462464	0.000278	2.783673	0.471567	-0.000028
1484	1.4756e+02	5.2380	5.431098	0.000315	3.152100	0.533980	-0.000032
1485	1.4766e+02	5.2283	5.403399	0.000278	2.783673	0.471567	-0.000028
1486	1.4776e+02	5.2197	5.374478	0.000291	2.906482	0.492371	-0.000029
1487	1.4786e+02	5.2096	5.346371	0.000282	2.824609	0.478502	-0.000028
1488	1.4796e+02	5.2012	5.319079	0.000274	2.742736	0.464632	-0.000027
1489	1.4806e+02	5.1866	5.289343	0.000299	2.988355	0.506241	-0.000030
1490	1.4816e+02	5.1795	5.259607	0.000299	2.988355	0.506241	-0.000030
1491	1.4825e+02	5.1701	5.234759	0.000250	2.497118	0.423023	-0.000025
1492	1.4835e+02	5.1601	5.207467	0.000274	2.742736	0.464632	-0.000027
1493	1.4845e+02	5.1476	5.178953	0.000287	2.865546	0.485437	-0.000029
1494	1.4855e+02	5.1417	5.151661	0.000274	2.742736	0.464632	-0.000027
1495	1.4865e+02	5.1305	5.119889	0.000319	3.193036	0.540915	-0.000032
1496	1.4875e+02	5.1198	5.093819	0.000262	2.619927	0.443828	-0.000026
1497	1.4885e+02	5.1090	5.064083	0.000299	2.988355	0.506241	-0.000030
1498	1.4895e+02	5.0996	5.036791	0.000274	2.742736	0.464632	-0.000027
1499	1.4905e+02	5.0910	5.009499	0.000274	2.742736	0.464632	-0.000027
1500	1.4915e+02	5.0791	4.982207	0.000274	2.742736	0.464632	-0.000027
1501	1.4925e+02	5.0711	4.956137	0.000262	2.619927	0.443828	-0.000026
1502	1.4935e+02	5.0645	4.932918	0.000233	2.333373	0.395284	-0.000023
1503	1.4945e+02	5.0487	4.907256	0.000258	2.578991	0.436893	-0.000026
1504	1.4955e+02	5.0390	4.879556	0.000278	2.783673	0.471567	-0.000028
1505	1.4965e+02	5.0317	4.856745	0.000229	2.292436	0.388349	-0.000023
1506	1.4975e+02	5.0208	4.829453	0.000274	2.742736	0.464632	-0.000027
1507	1.4985e+02	5.0123	4.800939	0.000287	2.865546	0.485437	-0.000029
1508	1.4995e+02	5.0008	4.774055	0.000270	2.701800	0.457697	-0.000027
1509	1.5005e+02	4.9933	4.747577	0.000266	2.660864	0.450763	-0.000027
1510	1.5015e+02	4.9787	4.719878	0.000278	2.783673	0.471567	-0.000028
1511	1.5025e+02	4.9718	4.693401	0.000266	2.660864	0.450763	-0.000027
1512	1.5034e+02	4.9609	4.665294	0.000282	2.824609	0.478502	-0.000028
1513	1.5044e+02	4.9533	4.638817	0.000266	2.660864	0.450763	-0.000027
1514	1.5054e+02	4.9435	4.608674	0.000303	3.029291	0.513176	-0.000030
1515	1.5064e+02	4.9310	4.578530	0.000303	3.029291	0.513176	-0.000030
1516	1.5074e+02	4.9221	4.554904	0.000237	2.374309	0.402219	-0.000024
1517	1.5084e+02	4.9105	4.523946	0.000311	3.111164	0.527045	-0.000031
1518	1.5094e+02	4.9006	4.496247	0.000278	2.783673	0.471567	-0.000028
1519	1.5104e+02	4.8908	4.470992	0.000254	2.538055	0.429958	-0.000025
1520	1.5114e+02	4.8821	4.439626	0.000315	3.152100	0.533980	-0.000032
1521	1.5124e+02	4.8727	4.410705	0.000291	2.906482	0.492371	-0.000029
1522	1.5134e+02	4.8640	4.384228	0.000266	2.660864	0.450763	-0.000027
1523	1.5144e+02	4.8528	4.357751	0.000266	2.660864	0.450763	-0.000027
1524	1.5154e+02	4.8402	4.327607	0.000303	3.029291	0.513176	-0.000030
1525	1.5164e+02	4.8315	4.298279	0.000295	2.947418	0.499306	-0.000029
1526	1.5174e+02	4.8196	4.269765	0.000287	2.865546	0.485437	-0.000029
1527	1.5184e+02	4.8133	4.243287	0.000266	2.660864	0.450763	-0.000027
1528	1.5194e+02	4.8031	4.213551	0.000299	2.988355	0.506241	-0.000030
1529	1.5204e+02	4.7908	4.185445	0.000282	2.824609	0.478502	-0.000028
1530	1.5214e+02	4.7828	4.156116	0.000295	2.947418	0.499306	-0.000029
1531	1.5224e+02	4.7701	4.128824	0.000274	2.742736	0.464632	-0.000027
1532	1.5233e+02	4.7629	4.101125	0.000278	2.783673	0.471567	-0.000028
1533	1.5243e+02	4.7541	4.073018	0.000282	2.824609	0.478502	-0.000028
1534	1.5253e+02	4.7435	4.044097	0.000291	2.906482	0.492371	-0.000029
1535	1.5263e+02	4.7327	4.015583	0.000287	2.865546	0.485437	-0.000029
1536	1.5273e+02	4.7210	3.987884	0.000278	2.783673	0.471567	-0.000028
1537	1.5283e+02	4.7112	3.960999	0.000270	2.701800	0.457697	-0.000027
1538	1.5293e+02	4.7005	3.933300	0.000278	2.783673	0.471567	-0.000028
1539	1.5303e+02	4.6927	3.903971	0.000295	2.947418	0.499306	-0.000029
1540	1.5313e+02	4.6812	3.874642	0.000295	2.947418	0.499306	-0.000029
1541	1.5323e+02	4.6720	3.844906	0.000299	2.988355	0.506241	-0.000030
1542	1.5333e+02	4.6607	3.815170	0.000299	2.988355	0.506241	-0.000030
1543	1.5343e+02	4.6513	3.787064	0.000282	2.824609	0.478502	-0.000028
1544	1.5353e+02	4.6402	3.760586	0.000266	2.660864	0.450763	-0.000027
1545	1.5363e+02	4.6326	3.729628	0.000311	3.111164	0.527045	-0.000031
1546	1.5373e+02	4.6220	3.698263	0.000315	3.152100	0.533980	-0.000032
1547	1.5383e+02	4.6125	3.670156	0.000282	2.824609	0.478502	-0.000028
1548	1.5393e+02	4.6008	3.639606	0.000307	3.070227	0.520111	-0.000031
1549	1.5403e+02	4.5928	3.612721	0.000270	2.701800	0.457697	-0.000027
1550	1.5413e+02	4.5832	3.585022	0.000278	2.783673	0.471567	-0.000028
1551	1.5422e+02	4.5725	3.555286	0.000299	2.988355	0.506241	-0.000030
1552	1.5432e+02	4.5634	3.527179	0.000282	2.824609	0.478502	-0.000028
1553	1.5442e+02	4.5529	3.497850	0.000295	2.947418	0.499306	-0.000029
1554	1.5452e+02	4.5432	3.471373	0.000266	2.660864	0.450763	-0.000027
1555	1.5462e+02	4.5325	3.440823	0.000307	3.070227	0.520111	-0.000031
1556	1.5472e+02	4.5225	3.408642	0.000323	3.233973	0.547850	-0.000032
1557	1.5482e+02	4.5143	3.378906	0.000299	2.988355	0.506241	-0.000030
1558	1.5492e+02	4.5045	3.353244	0.000258	2.578991	0.436893	-0.000026
1559	1.5502e+02	4.4946	3.321471	0.000319	3.193036	0.540915	-0.000032
1560	1.5512e+02	4.4859	3.288476	0.000332	3.315846	0.561719	-0.000033
1561	1.5522e+02	4.4735	3.261184	0.000274	2.742736	0.464632	-0.000027
1562	1.5532e+02	4.4621	3.234300	0.000270	2.701800	0.457697	-0.000027
1563	1.5542e+02	4.4546	3.206601	0.000278	2.783673	0.471567	-0.000028
1564	1.5552e+02	4.4439	3.177679	0.000291	2.906482	0.492371	-0.000029
1565	1.5562e+02	4.4314	3.148758	0.000291	2.906482	0.492371	-0.000029
1566	1.5572e+02	4.4249	3.123095	0.000258	2.578991	0.436893	-0.000026
1567	1.5582e+02	4.4135	3.097025	0.000262	2.619927	0.443828	-0.000026
1568	1.5592e+02	4.4015	3.067697	0.000295	2.947418	0.499306	-0.000029
1569	1.5602e+02	4.3931	3.039997	0.000278	2.783673	0.471567	-0.000028
1570	1.5612e+02	4.3848	3.011076	0.000291	2.906482	0.492371	-0.000029
1571	1.5622e+02	4.3740	2.985006	0.000262	2.619927	0.443828	-0.000026
1572	1.5631e+02	4.3624	2.955678	0.000295	2.947418	0.499306	-0.000029
1573	1.5641e+02	4.3554	2.928386	0.000274	2.742736	0.464632	-0.000027
1574	1.5651e+02	4.3451	2.895391	0.000332	3.315846	0.561719	-0.000033
1575	1.5661e+02	4.3340	2.866470	0.000291	2.906482	0.492371	-0.000029
1576	1.5671e+02	4.3238	2.838770	0.000278	2.783673	0.471567	-0.000028
1577	1.5681e+02	4.3148	2.809442	0.000295	2.947418	0.499306	-0.000029
1578	1.5691e+02	4.3033	2.778076	0.000315	3.152100	0.533980	-0.000032
1579	1.5701e+02	4.2963	2.752821	0.000254	2.538055	0.429958	-0.000025
1580	1.5711e+02	4.2847	2.718604	0.000344	3.438655	0.582524	-0.000034
1581	1.5721e+02	4.2730	2.692534	0.000262	2.619927	0.443828	-0.000026
1582	1.5731e+02	4.2669	2.663613	0.000291	2.906482	0.492371	-0.000029
1583	1.5741e+02	4.2553	2.633470	0.000303	3.029291	0.513176	-0.000030
1584	1.5751e+02	4.2445	2.599253	0.000344	3.438655	0.582524	-0.000034
1585	1.5761e+02	4.2335	2.565851	0.000336	3.356782	0.568654	-0.000034
1586	1.5771e+02	4.2229	2.535707	0.000303	3.029291	0.513176	-0.000030
1587	1.5781e+02	4.2155	2.499047	0.000368	3.684273	0.624133	-0.000037
1588	1.5791e+02	4.2020	2.472162	0.000270	2.701800	0.457697	-0.000027
1589	1.5801e+02	4.1951	2.440797	0.000315	3.152100	0.533980	-0.000032
1590	1.5811e+02	4.1849	2.406172	0.000348	3.479591	0.589459	-0.000035
1591	1.5821e+02	4.1758	2.375214	0.000311	3.111164	0.527045	-0.000031
1592	1.5830e+02	4.1644	2.345478	0.000299	2.988355	0.506241	-0.000030
1593	1.5840e+02	4.1534	2.313706	0.000319	3.193036	0.540915	-0.000032
1594	1.5850e+02	4.1454	2.281118	0.000327	3.274909	0.554785	-0.000033
1595	1.5860e+02	4.1352	2.252197	0.000291	2.906482	0.492371	-0.000029
1596	1.5870e+02	4.1235	2.219202	0.000332	3.315846	0.561719	-0.000033
1597	1.5880e+02	4.1162	2.191096	0.000282	2.824609	0.478502	-0.000028
1598	1.5890e+02	4.1042	2.160545	0.000307	3.070227	0.520111	-0.000031
1599	1.5900e+02	4.0931	2.130402	0.000303	3.029291	0.513176	-0.000030
1600	1.5910e+02	4.0823	2.097407	0.000332	3.315846	0.561719	-0.000033
1601	1.5920e+02	4.0728	2.069708	0.000278	2.783673	0.471567	-0.000028
1602	1.5930e+02	4.0657	2.040786	0.000291	2.906482	0.492371	-0.000029
1603	1.5940e+02	4.0578	2.008606	0.000323	3.233973	0.547850	-0.000032
1604	1.5950e+02	4.0462	1.977241	0.000315	3.152100	0.533980	-0.000032
1605	1.5960e+02	4.0363	1.946690	0.000307	3.070227	0.520111	-0.000031
1606	1.5970e+02	4.0266	1.917769	0.000291	2.906482	0.492371	-0.000029
1607	1.5980e+02	4.0177	1.887218	0.000307	3.070227	0.520111	-0.000031
1608	1.5990e+02	4.0076	1.854631	0.000327	3.274909	0.554785	-0.000033
1609	1.6000e+02	3.9980	1.823673	0.000311	3.111164	0.527045	-0.000031
1610	1.6010e+02	3.9832	1.793937	0.000299	2.988355	0.506241	-0.000030
1611	1.6019e+02	3.9776	1.765423	0.000287	2.865546	0.485437	-0.000029
1612	1.6029e+02	3.9648	1.736094	0.000295	2.947418	0.499306	-0.000029
1613	1.6039e+02	3.9561	1.703507	0.000327	3.274909	0.554785	-0.000033
1614	1.6049e+02	3.9458	1.671734	0.000319	3.193036	0.540915	-0.000032
1615	1.6059e+02	3.9384	1.641998	0.000299	2.988355	0.506241	-0.000030
1616	1.6069e+02	3.9266	1.607374	0.000348	3.479591	0.589459	-0.000035
1617	1.6079e+02	3.9154	1.583340	0.000242	2.415246	0.409154	-0.000024
1618	1.6089e+02	3.9056	1.549531	0.000340	3.397718	0.575589	-0.000034
1619	1.6099e+02	3.8958	1.514907	0.000348	3.479591	0.589459	-0.000035
1620	1.6109e+02	3.8873	1.484356	0.000307	3.070227	0.520111	-0.000031
1621	1.6119e+02	3.8748	1.453398	0.000311	3.111164	0.527045	-0.000031
1622	1.6129e+02	3.8694	1.421626	0.000319	3.193036	0.540915	-0.000032
1623	1.6139e+02	3.8558	1.393926	0.000278	2.783673	0.471567	-0.000028
1624	1.6149e+02	3.8477	1.363783	0.000303	3.029291	0.513176	-0.000030
1625	1.6159e+02	3.8345	1.329973	0.000340	3.397718	0.575589	-0.000034
1626	1.6169e+02	3.8294	1.301459	0.000287	2.865546	0.485437	-0.000029
1627	1.6179e+02	3.8164	1.272131	0.000295	2.947418	0.499306	-0.000029
1628	1.6189e+02	3.8035	1.241987	0.000303	3.029291	0.513176	-0.000030
1629	1.6199e+02	3.7963	1.209400	0.000327	3.274909	0.554785	-0.000033
1630	1.6209e+02	3.7846	1.178849	0.000307	3.070227	0.520111	-0.000031
1631	1.6219e+02	3.7778	1.149928	0.000291	2.906482	0.492371	-0.000029
1632	1.6228e+02	3.7673	1.117748	0.000323	3.233973	0.547850	-0.000032
1633	1.6238e+02	3.7562	1.085975	0.000319	3.193036	0.540915	-0.000032
1634	1.6248e+02	3.7508	1.055017	0.000311	3.111164	0.527045	-0.000031
1635	1.6258e+02	3.7376	1.023652	0.000315	3.152100	0.533980	-0.000032
1636	1.6268e+02	3.7246	0.991879	0.000319	3.193036	0.540915	-0.000032
1637	1.6278e+02	3.7173	0.962143	0.000299	2.988355	0.506241	-0.000030
1638	1.6288e+02	3.7063	0.929148	0.000332	3.315846	0.561719	-0.000033
1639	1.6298e+02	3.6945	0.901449	0.000278	2.783673	0.471567	-0.000028
1640	1.6308e+02	3.6869	0.868454	0.000332	3.315846	0.561719	-0.000033
1641	1.6318e+02	3.6760	0.840755	0.000278	2.783673	0.471567	-0.000028
1642	1.6328e+02	3.6663	0.808168	0.000327	3.274909	0.554785	-0.000033
1643	1.6338e+02	3.6569	0.779246	0.000291	2.906482	0.492371	-0.000029
1644	1.6348e+02	3.6460	0.746659	0.000327	3.274909	0.554785	-0.000033
1645	1.6358e+02	3.6416	0.715701	0.000311	3.111164	0.527045	-0.000031
1646	1.6368e+02	3.6280	0.681891	0.000340	3.397718	0.575589	-0.000034
1647	1.6378e+02	3.6178	0.650933	0.000311	3.111164	0.527045	-0.000031
1648	1.6388e+02	3.6057	0.615495	0.000356	3.561464	0.603328	-0.000036
1649	1.6398e+02	3.5973	0.584944	0.000307	3.070227	0.520111	-0.000031
1650	1.6408e+02	3.5881	0.549505	0.000356	3.561464	0.603328	-0.000036
1651	1.6418e+02	3.5776	0.518954	0.000307	3.070227	0.520111	-0.000031
1652	1.6427e+02	3.5659	0.485145	0.000340	3.397718	0.575589	-0.000034
1653	1.6437e+02	3.5590	0.452150	0.000332	3.315846	0.561719	-0.000033
1654	1.6447e+02	3.5461	0.419970	0.000323	3.233973	0.547850	-0.000032
1655	1.6457e+02	3.5374	0.385753	0.000344	3.438655	0.582524	-0.000034
1656	1.6467e+02	3.5314	0.355610	0.000303	3.029291	0.513176	-0.000030
1657	1.6477e+02	3.5178	0.324245	0.000315	3.152100	0.533980	-0.000032
1658	1.6487e+02	3.5094	0.294916	0.000295	2.947418	0.499306	-0.000029
1659	1.6497e+02	3.4987	0.262736	0.000323	3.233973	0.547850	-0.000032
1660	1.6507e+02	3.4867	0.231371	0.000315	3.152100	0.533980	-0.000032
1661	1.6517e+02	3.4798	0.197968	0.000336	3.356782	0.568654	-0.000034
1662	1.6527e+02	3.4699	0.167418	0.000307	3.070227	0.520111	-0.000031
1663	1.6537e+02	3.4594	0.135645	0.000319	3.193036	0.540915	-0.000032
1664	1.6547e+02	3.4455	0.104687	0.000311	3.111164	0.527045	-0.000031
1665	1.6557e+02	3.4386	0.069656	0.000352	3.520527	0.596393	-0.000035
1666	1.6567e+02	3.4280	0.042771	0.000270	2.701800	0.457697	-0.000027
1667	1.6577e+02	3.4178	0.007332	0.000356	3.561464	0.603328	-0.000036
1668	1.6587e+02	3.4092	-0.019145	0.000266	2.660864	0.450763	-0.000027
1669	1.6597e+02	3.4002	-0.049288	0.000303	3.029291	0.513176	-0.000030
1670	1.6607e+02	3.3913	-0.076173	0.000270	2.701800	0.457697	-0.000027
1671	1.6616e+02	3.3778	-0.108760	0.000327	3.274909	0.554785	-0.000033
1672	1.6626e+02	3.3694	-0.137274	0.000287	2.865546	0.485437	-0.000029
1673	1.6636e+02	3.3604	-0.167825	0.000307	3.070227	0.520111	-0.000031
1674	1.6646e+02	3.3508	-0.194710	0.000270	2.701800	0.457697	-0.000027
1675	1.6656e+02	3.3405	-0.227704	0.000332	3.315846	0.561719	-0.000033
1676	1.6666e+02	3.3298	-0.257440	0.000299	2.988355	0.506241	-0.000030
1677	1.6676e+02	3.3189	-0.291250	0.000340	3.397718	0.575589	-0.000034
1678	1.6686e+02	3.3091	-0.323023	0.000319	3.193036	0.540915	-0.000032
1679	1.6696e+02	3.2998	-0.353166	0.000303	3.029291	0.513176	-0.000030
1680	1.6706e+02	3.2886	-0.386568	0.000336	3.356782	0.568654	-0.000034
1681	1.6716e+02	3.2790	-0.415489	0.000291	2.906482	0.492371	-0.000029
1682	1.6726e+02	3.2679	-0.448484	0.000332	3.315846	0.561719	-0.000033
1683	1.6736e+02	3.2575	-0.477405	0.000291	2.906482	0.492371	-0.000029
1684	1.6746e+02	3.2484	-0.511622	0.000344	3.438655	0.582524	-0.000034
1685	1.6756e+02	3.2380	-0.545024	0.000336	3.356782	0.568654	-0.000034
1686	1.6766e+02	3.2309	-0.573946	0.000291	2.906482	0.492371	-0.000029
1687	1.6776e+02	3.2201	-0.610199	0.000364	3.643336	0.617198	-0.000036
1688	1.6786e+02	3.2117	-0.639935	0.000299	2.988355	0.506241	-0.000030
1689	1.6796e+02	3.2020	-0.672930	0.000332	3.315846	0.561719	-0.000033
1690	1.6806e+02	3.1885	-0.703888	0.000311	3.111164	0.527045	-0.000031
1691	1.6816e+02	3.1780	-0.729143	0.000254	2.538055	0.429958	-0.000025
1692	1.6825e+02	3.1686	-0.768655	0.000397	3.970827	0.672676	-0.000040
1693	1.6835e+02	3.1603	-0.796762	0.000282	2.824609	0.478502	-0.000028
1694	1.6845e+02	3.1486	-0.834645	0.000381	3.807082	0.644937	-0.000038
1695	1.6855e+02	3.1413	-0.864381	0.000299	2.988355	0.506241	-0.000030
1696	1.6865e+02	3.1280	-0.893710	0.000295	2.947418	0.499306	-0.000029
1697	1.6875e+02	3.1222	-0.927112	0.000336	3.356782	0.568654	-0.000034
1698	1.6885e+02	3.1092	-0.958477	0.000315	3.152100	0.533980	-0.000032
1699	1.6895e+02	3.1015	-0.991879	0.000336	3.356782	0.568654	-0.000034
1700	1.6905e+02	3.0878	-1.025689	0.000340	3.397718	0.575589	-0.000034
1701	1.6915e+02	3.0830	-1.054203	0.000287	2.865546	0.485437	-0.000029
1702	1.6925e+02	3.0711	-1.090863	0.000368	3.684273	0.624133	-0.000037
1703	1.6935e+02	3.0598	-1.119377	0.000287	2.865546	0.485437	-0.000029
1704	1.6945e+02	3.0470	-1.150335	0.000311	3.111164	0.527045	-0.000031
1705	1.6955e+02	3.0415	-1.181701	0.000315	3.152100	0.533980	-0.000032
1706	1.6965e+02	3.0302	-1.214288	0.000327	3.274909	0.554785	-0.000033
1707	1.6975e+02	3.0216	-1.246061	0.000319	3.193036	0.540915	-0.000032
1708	1.6985e+02	3.0142	-1.277426	0.000315	3.152100	0.533980	-0.000032
1709	1.6995e+02	3.0009	-1.315309	0.000381	3.807082	0.644937	-0.000038
1710	1.7005e+02	2.9913	-1.345045	0.000299	2.988355	0.506241	-0.000030
1711	1.7015e+02	2.9818	-1.379262	0.000344	3.438655	0.582524	-0.000034
1712	1.7024e+02	2.9720	-1.410627	0.000315	3.152100	0.533980	-0.000032
1713	1.7034e+02	2.9605	-1.443622	0.000332	3.315846	0.561719	-0.000033
1714	1.7044e+02	2.9500	-1.479468	0.000360	3.602400	0.610263	-0.000036
1715	1.7054e+02	2.9397	-1.509204	0.000299	2.988355	0.506241	-0.000030
1716	1.7064e+02	2.9307	-1.544236	0.000352	3.520527	0.596393	-0.000035
1717	1.7074e+02	2.9198	-1.576416	0.000323	3.233973	0.547850	-0.000032
1718	1.7084e+02	2.9110	-1.606559	0.000303	3.029291	0.513176	-0.000030
1719	1.7094e+02	2.9031	-1.643220	0.000368	3.684273	0.624133	-0.000037
1720	1.7104e+02	2.8925	-1.674585	0.000315	3.152100	0.533980	-0.000032
1721	1.7114e+02	2.8805	-1.703099	0.000287	2.865546	0.485437	-0.000029
1722	1.7124e+02	2.8730	-1.742204	0.000393	3.929891	0.665742	-0.000039
1723	1.7134e+02	2.8627	-1.772755	0.000307	3.070227	0.520111	-0.000031
1724	1.7144e+02	2.8491	-1.804120	0.000315	3.152100	0.533980	-0.000032
1725	1.7154e+02	2.8416	-1.842003	0.000381	3.807082	0.644937	-0.000038
1726	1.7164e+02	2.8305	-1.871332	0.000295	2.947418	0.499306	-0.000029
1727	1.7174e+02	2.8204	-1.907585	0.000364	3.643336	0.617198	-0.000036
1728	1.7184e+02	2.8109	-1.938951	0.000315	3.152100	0.533980	-0.000032
1729	1.7194e+02	2.8019	-1.974797	0.000360	3.602400	0.610263	-0.000036
1730	1.7204e+02	2.7958	-2.006569	0.000319	3.193036	0.540915	-0.000032
1731	1.7213e+02	2.7822	-2.039971	0.000336	3.356782	0.568654	-0.000034
1732	1.7223e+02	2.7713	-2.071744	0.000319	3.193036	0.540915	-0.000032
1733	1.7233e+02	2.7631	-2.099444	0.000278	2.783673	0.471567	-0.000028
1734	1.7243e+02	2.7515	-2.129994	0.000307	3.070227	0.520111	-0.000031
1735	1.7253e+02	2.7425	-2.164618	0.000348	3.479591	0.589459	-0.000035
1736	1.7263e+02	2.7332	-2.192725	0.000282	2.824609	0.478502	-0.000028
1737	1.7273e+02	2.7220	-2.226534	0.000340	3.397718	0.575589	-0.000034
1738	1.7283e+02	2.7128	-2.257900	0.000315	3.152100	0.533980	-0.000032
1739	1.7293e+02	2.7035	-2.287636	0.000299	2.988355	0.506241	-0.000030
1740	1.7303e+02	2.6925	-2.324297	0.000368	3.684273	0.624133	-0.000037
1741	1.7313e+02	2.6797	-2.359328	0.000352	3.520527	0.596393	-0.000035
1742	1.7323e+02	2.6744	-2.390286	0.000311	3.111164	0.527045	-0.000031
1743	1.7333e+02	2.6634	-2.427354	0.000373	3.725209	0.631068	-0.000037
1744	1.7343e+02	2.6537	-2.456276	0.000291	2.906482	0.492371	-0.000029
1745	1.7353e+02	2.6420	-2.492122	0.000360	3.602400	0.610263	-0.000036
1746	1.7363e+02	2.6313	-2.529190	0.000373	3.725209	0.631068	-0.000037
1747	1.7373e+02	2.6229	-2.555667	0.000266	2.660864	0.450763	-0.000027
1748	1.7383e+02	2.6134	-2.594365	0.000389	3.888955	0.658807	-0.000039
1749	1.7393e+02	2.6021	-2.625730	0.000315	3.152100	0.533980	-0.000032
1750	1.7403e+02	2.5951	-2.661576	0.000360	3.602400	0.610263	-0.000036
1751	1.7413e+02	2.5832	-2.694571	0.000332	3.315846	0.561719	-0.000033
1752	1.7422e+02	2.5723	-2.727158	0.000327	3.274909	0.554785	-0.000033
1753	1.7432e+02	2.5628	-2.765449	0.000385	3.848018	0.651872	-0.000038
1754	1.7442e+02	2.5509	-2.799258	0.000340	3.397718	0.575589	-0.000034
1755	1.7452e+02	2.5443	-2.837141	0.000381	3.807082	0.644937	-0.000038
1756	1.7462e+02	2.5330	-2.875838	0.000389	3.888955	0.658807	-0.000039
1757	1.7472e+02	2.5227	-2.910055	0.000344	3.438655	0.582524	-0.000034
1758	1.7482e+02	2.5122	-2.943050	0.000332	3.315846	0.561719	-0.000033
1759	1.7492e+02	2.5041	-2.980933	0.000381	3.807082	0.644937	-0.000038
1760	1.7502e+02	2.4939	-3.013520	0.000327	3.274909	0.554785	-0.000033
1761	1.7512e+02	2.4821	-3.049774	0.000364	3.643336	0.617198	-0.000036
1762	1.7522e+02	2.4734	-3.087249	0.000377	3.766146	0.638002	-0.000038
1763	1.7532e+02	2.4648	-3.121466	0.000344	3.438655	0.582524	-0.000034
1764	1.7542e+02	2.4504	-3.154868	0.000336	3.356782	0.568654	-0.000034
1765	1.7552e+02	2.4430	-3.189085	0.000344	3.438655	0.582524	-0.000034
1766	1.7562e+02	2.4349	-3.224116	0.000352	3.520527	0.596393	-0.000035
1767	1.7572e+02	2.4241	-3.259555	0.000356	3.561464	0.603328	-0.000036
1768	1.7582e+02	2.4129	-3.292957	0.000336	3.356782	0.568654	-0.000034
1769	1.7592e+02	2.4037	-3.325952	0.000332	3.315846	0.561719	-0.000033
1770	1.7602e+02	2.3916	-3.363835	0.000381	3.807082	0.644937	-0.000038
1771	1.7612e+02	2.3824	-3.396830	0.000332	3.315846	0.561719	-0.000033
1772	1.7621e+02	2.3730	-3.431046	0.000344	3.438655	0.582524	-0.000034
1773	1.7631e+02	2.3621	-3.468929	0.000381	3.807082	0.644937	-0.000038
1774	1.7641e+02	2.3587	-3.498665	0.000299	2.988355	0.506241	-0.000030
1775	1.7651e+02	2.3435	-3.534104	0.000356	3.561464	0.603328	-0.000036
1776	1.7661e+02	2.3354	-3.570765	0.000368	3.684273	0.624133	-0.000037
1777	1.7671e+02	2.3254	-3.601315	0.000307	3.070227	0.520111	-0.000031
1778	1.7681e+02	2.3145	-3.640420	0.000393	3.929891	0.665742	-0.000039
1779	1.7691e+02	2.3035	-3.671786	0.000315	3.152100	0.533980	-0.000032
1780	1.7701e+02	2.2931	-3.707225	0.000356	3.561464	0.603328	-0.000036
1781	1.7711e+02	2.2869	-3.741441	0.000344	3.438655	0.582524	-0.000034
1782	1.7721e+02	2.2730	-3.778102	0.000368	3.684273	0.624133	-0.000037
1783	1.7731e+02	2.2655	-3.813541	0.000356	3.561464	0.603328	-0.000036
1784	1.7741e+02	2.2531	-3.846536	0.000332	3.315846	0.561719	-0.000033
1785	1.7751e+02	2.2446	-3.882382	0.000360	3.602400	0.610263	-0.000036
1786	1.7761e+02	2.2328	-3.917006	0.000348	3.479591	0.589459	-0.000035
1787	1.7771e+02	2.2245	-3.952852	0.000360	3.602400	0.610263	-0.000036
1788	1.7781e+02	2.2115	-3.988291	0.000356	3.561464	0.603328	-0.000036
1789	1.7791e+02	2.2063	-4.027396	0.000393	3.929891	0.665742	-0.000039
1790	1.7801e+02	2.1925	-4.064464	0.000373	3.725209	0.631068	-0.000037
1791	1.7810e+02	2.1834	-4.093793	0.000295	2.947418	0.499306	-0.000029
1792	1.7820e+02	2.1737	-4.128824	0.000352	3.520527	0.596393	-0.000035
1793	1.7830e+02	2.1656	-4.163856	0.000352	3.520527	0.596393	-0.000035
1794	1.7840e+02	2.1562	-4.201738	0.000381	3.807082	0.644937	-0.000038
1795	1.7850e+02	2.1458	-4.235955	0.000344	3.438655	0.582524	-0.000034
1796	1.7860e+02	2.1358	-4.269357	0.000336	3.356782	0.568654	-0.000034
1797	1.7870e+02	2.1251	-4.306425	0.000373	3.725209	0.631068	-0.000037
1798	1.7880e+02	2.1139	-4.341457	0.000352	3.520527	0.596393	-0.000035
1799	1.7890e+02	2.1058	-4.372008	0.000307	3.070227	0.520111	-0.000031
1800	1.7900e+02	2.0944	-4.409890	0.000381	3.807082	0.644937	-0.000038
1801	1.7910e+02	2.0876	-4.444107	0.000344	3.438655	0.582524	-0.000034
1802	1.7920e+02	2.0757	-4.481583	0.000377	3.766146	0.638002	-0.000038
1803	1.7930e+02	2.0650	-4.515800	0.000344	3.438655	0.582524	-0.000034
1804	1.7940e+02	2.0549	-4.554090	0.000385	3.848018	0.651872	-0.000038
1805	1.7950e+02	2.0432	-4.587899	0.000340	3.397718	0.575589	-0.000034
1806	1.7960e+02	2.0358	-4.624560	0.000368	3.684273	0.624133	-0.000037
1807	1.7970e+02	2.0270	-4.660406	0.000360	3.602400	0.610263	-0.000036
1808	1.7980e+02	2.0152	-4.692994	0.000327	3.274909	0.554785	-0.000033
1809	1.7990e+02	2.0059	-4.726803	0.000340	3.397718	0.575589	-0.000034
1810	1.8000e+02	1.9964	-4.762649	0.000360	3.602400	0.610263	-0.000036
1811	1.8009e+02	1.9861	-4.797273	0.000348	3.479591	0.589459	-0.000035
1812	1.8019e+02	1.9759	-4.833527	0.000364	3.643336	0.617198	-0.000036
1813	1.8029e+02	1.9634	-4.873039	0.000397	3.970827	0.672676	-0.000040
1814	1.8039e+02	1.9560	-4.906441	0.000336	3.356782	0.568654	-0.000034
1815	1.8049e+02	1.9463	-4.940250	0.000340	3.397718	0.575589	-0.000034
1816	1.8059e+02	1.9347	-4.977319	0.000373	3.725209	0.631068	-0.000037
1817	1.8069e+02	1.9264	-5.018053	0.000409	4.093636	0.693481	-0.000041
1818	1.8079e+02	1.9162	-5.055528	0.000377	3.766146	0.638002	-0.000038
1819	1.8089e+02	1.9051	-5.090967	0.000356	3.561464	0.603328	-0.000036
1820	1.8099e+02	1.8956	-5.130887	0.000401	4.011764	0.679611	-0.000040
1821	1.8109e+02	1.8848	-5.169992	0.000393	3.929891	0.665742	-0.000039
1822	1.8119e+02	1.8769	-5.205430	0.000356	3.561464	0.603328	-0.000036
1823	1.8129e+02	1.8677	-5.243313	0.000381	3.807082	0.644937	-0.000038
1824	1.8139e+02	1.8578	-5.272642	0.000295	2.947418	0.499306	-0.000029
1825	1.8149e+02	1.8446	-5.312969	0.000405	4.052700	0.686546	-0.000041
1826	1.8159e+02	1.8373	-5.346371	0.000336	3.356782	0.568654	-0.000034
1827	1.8169e+02	1.8279	-5.383439	0.000373	3.725209	0.631068	-0.000037
1828	1.8179e+02	1.8158	-5.421322	0.000381	3.807082	0.644937	-0.000038
1829	1.8189e+02	1.8083	-5.453909	0.000327	3.274909	0.554785	-0.000033
1830	1.8199e+02	1.7956	-5.492200	0.000385	3.848018	0.651872	-0.000038
1831	1.8209e+02	1.7867	-5.528453	0.000364	3.643336	0.617198	-0.000036
1832	1.8218e+02	1.7762	-5.562263	0.000340	3.397718	0.575589	-0.000034
1833	1.8228e+02	1.7657	-5.601775	0.000397	3.970827	0.672676	-0.000040
1834	1.8238e+02	1.7570	-5.632733	0.000311	3.111164	0.527045	-0.000031
1835	1.8248e+02	1.7456	-5.674689	0.000422	4.216446	0.714285	-0.000042
1836	1.8258e+02	1.7377	-5.706054	0.000315	3.152100	0.533980	-0.000032
1837	1.8268e+02	1.7267	-5.737420	0.000315	3.152100	0.533980	-0.000032
1838	1.8278e+02	1.7183	-5.776525	0.000393	3.929891	0.665742	-0.000039
1839	1.8288e+02	1.7062	-5.806261	0.000299	2.988355	0.506241	-0.000030
1840	1.8298e+02	1.6975	-5.843736	0.000377	3.766146	0.638002	-0.000038
1841	1.8308e+02	1.6878	-5.875509	0.000319	3.193036	0.540915	-0.000032
1842	1.8318e+02	1.6749	-5.912984	0.000377	3.766146	0.638002	-0.000038
1843	1.8328e+02	1.6709	-5.943943	0.000311	3.111164	0.527045	-0.000031
1844	1.8338e+02	1.6574	-5.982233	0.000385	3.848018	0.651872	-0.000038
1845	1.8348e+02	1.6447	-6.017264	0.000352	3.520527	0.596393	-0.000035
1846	1.8358e+02	1.6379	-6.052703	0.000356	3.561464	0.603328	-0.000036
1847	1.8368e+02	1.6275	-6.089771	0.000373	3.725209	0.631068	-0.000037
1848	1.8378e+02	1.6220	-6.127247	0.000377	3.766146	0.638002	-0.000038
1849	1.8388e+02	1.6079	-6.159427	0.000323	3.233973	0.547850	-0.000032
1850	1.8398e+02	1.5984	-6.198532	0.000393	3.929891	0.665742	-0.000039
1851	1.8407e+02	1.5881	-6.234785	0.000364	3.643336	0.617198	-0.000036
1852	1.8417e+02	1.5774	-6.272261	0.000377	3.766146	0.638002	-0.000038
1853	1.8427e+02	1.5647	-6.306070	0.000340	3.397718	0.575589	-0.000034
1854	1.8437e+02	1.5598	-6.341509	0.000356	3.561464	0.603328	-0.000036
1855	1.8447e+02	1.5472	-6.380206	0.000389	3.888955	0.658807	-0.000039
1856	1.8457e+02	1.5384	-6.417275	0.000373	3.725209	0.631068	-0.000037
1857	1.8467e+02	1.5301	-6.449455	0.000323	3.233973	0.547850	-0.000032
1858	1.8477e+02	1.5181	-6.490596	0.000413	4.134573	0.700416	-0.000041
1859	1.8487e+02	1.5098	-6.526035	0.000356	3.561464	0.603328	-0.000036
1860	1.8497e+02	1.4978	-6.559437	0.000336	3.356782	0.568654	-0.000034
1861	1.8507e+02	1.4869	-6.598542	0.000393	3.929891	0.665742	-0.000039
1862	1.8517e+02	1.4791	-6.635610	0.000373	3.725209	0.631068	-0.000037
1863	1.8527e+02	1.4690	-6.673086	0.000377	3.766146	0.638002	-0.000038
1864	1.8537e+02	1.4581	-6.708932	0.000360	3.602400	0.610263	-0.000036
1865	1.8547e+02	1.4503	-6.746000	0.000373	3.725209	0.631068	-0.000037
1866	1.8557e+02	1.4391	-6.785920	0.000401	4.011764	0.679611	-0.000040
1867	1.8567e+02	1.4285	-6.819729	0.000340	3.397718	0.575589	-0.000034
1868	1.8577e+02	1.4176	-6.855982	0.000364	3.643336	0.617198	-0.000036
1869	1.8587e+02	1.4084	-6.891421	0.000356	3.561464	0.603328	-0.000036
1870	1.8597e+02	1.3972	-6.928082	0.000368	3.684273	0.624133	-0.000037
1871	1.8606e+02	1.3865	-6.967594	0.000397	3.970827	0.672676	-0.000040
1872	1.8616e+02	1.3791	-7.003440	0.000360	3.602400	0.610263	-0.000036
1873	1.8626e+02	1.3676	-7.044989	0.000418	4.175509	0.707350	-0.000042
1874	1.8636e+02	1.3599	-7.073911	0.000291	2.906482	0.492371	-0.000029
1875	1.8646e+02	1.3490	-7.110979	0.000373	3.725209	0.631068	-0.000037
1876	1.8656e+02	1.3398	-7.152935	0.000422	4.216446	0.714285	-0.000042
1877	1.8666e+02	1.3294	-7.183486	0.000307	3.070227	0.520111	-0.000031
1878	1.8676e+02	1.3183	-7.226664	0.000434	4.339255	0.735090	-0.000043
1879	1.8686e+02	1.3073	-7.264140	0.000377	3.766146	0.638002	-0.000038
1880	1.8696e+02	1.3019	-7.306911	0.000430	4.298318	0.728155	-0.000043
1881	1.8706e+02	1.2884	-7.340313	0.000336	3.356782	0.568654	-0.000034
1882	1.8716e+02	1.2772	-7.381862	0.000418	4.175509	0.707350	-0.000042
1883	1.8726e+02	1.2696	-7.419745	0.000381	3.807082	0.644937	-0.000038
1884	1.8736e+02	1.2585	-7.451110	0.000315	3.152100	0.533980	-0.000032
1885	1.8746e+02	1.2486	-7.488585	0.000377	3.766146	0.638002	-0.000038
1886	1.8756e+02	1.2406	-7.524432	0.000360	3.602400	0.610263	-0.000036
1887	1.8766e+02	1.2323	-7.563944	0.000397	3.970827	0.672676	-0.000040
1888	1.8776e+02	1.2189	-7.601827	0.000381	3.807082	0.644937	-0.000038
1889	1.8786e+02	1.2118	-7.638895	0.000373	3.725209	0.631068	-0.000037
1890	1.8796e+02	1.1994	-7.675963	0.000373	3.725209	0.631068	-0.000037
1891	1.8806e+02	1.1877	-7.715475	0.000397	3.970827	0.672676	-0.000040
1892	1.8815e+02	1.1843	-7.756210	0.000409	4.093636	0.693481	-0.000041
1893	1.8825e+02	1.1695	-7.791648	0.000356	3.561464	0.603328	-0.000036
1894	1.8835e+02	1.1608	-7.831568	0.000401	4.011764	0.679611	-0.000040
1895	1.8845e+02	1.1515	-7.869858	0.000385	3.848018	0.651872	-0.000038
1896	1.8855e+02	1.1382	-7.904890	0.000352	3.520527	0.596393	-0.000035
1897	1.8865e+02	1.1311	-7.944809	0.000401	4.011764	0.679611	-0.000040
1898	1.8875e+02	1.1208	-7.984321	0.000397	3.970827	0.672676	-0.000040
1899	1.8885e+02	1.1138	-8.018945	0.000348	3.479591	0.589459	-0.000035
1900	1.8895e+02	1.1023	-8.057643	0.000389	3.888955	0.658807	-0.000039
1901	1.8905e+02	1.0899	-8.091860	0.000344	3.438655	0.582524	-0.000034
1902	1.8915e+02	1.0788	-8.127706	0.000360	3.602400	0.610263	-0.000036
1903	1.8925e+02	1.0708	-8.162330	0.000348	3.479591	0.589459	-0.000035
1904	1.8935e+02	1.0602	-8.199398	0.000373	3.725209	0.631068	-0.000037
1905	1.8945e+02	1.0499	-8.237281	0.000381	3.807082	0.644937	-0.000038
1906	1.8955e+02	1.0401	-8.273127	0.000360	3.602400	0.610263	-0.000036
1907	1.8965e+02	1.0327	-8.314676	0.000418	4.175509	0.707350	-0.000042
1908	1.8975e+02	1.0195	-8.352559	0.000381	3.807082	0.644937	-0.000038
1909	1.8985e+02	1.0106	-8.390849	0.000385	3.848018	0.651872	-0.000038
1910	1.8995e+02	1.0029	-8.428732	0.000381	3.807082	0.644937	-0.000038
1911	1.9004e+02	0.9921	-8.468244	0.000397	3.970827	0.672676	-0.000040
1912	1.9014e+02	0.9814	-8.504498	0.000364	3.643336	0.617198	-0.000036
1913	1.9024e+02	0.9689	-8.545232	0.000409	4.093636	0.693481	-0.000041
1914	1.9034e+02	0.9626	-8.583930	0.000389	3.888955	0.658807	-0.000039
1915	1.9044e+02	0.9501	-8.620590	0.000368	3.684273	0.624133	-0.000037
1916	1.9054e+02	0.9422	-8.659288	0.000389	3.888955	0.658807	-0.000039
1917	1.9064e+02	0.9316	-8.698393	0.000393	3.929891	0.665742	-0.000039
1918	1.9074e+02	0.9186	-8.735868	0.000377	3.766146	0.638002	-0.000038
1919	1.9084e+02	0.9115	-8.777010	0.000413	4.134573	0.700416	-0.000041
1920	1.9094e+02	0.9010	-8.823447	0.000467	4.666746	0.790568	-0.000047
1921	1.9104e+02	0.8910	-8.860923	0.000377	3.766146	0.638002	-0.000038
1922	1.9114e+02	0.8833	-8.901249	0.000405	4.052700	0.686546	-0.000041
1923	1.9124e+02	0.8672	-8.943613	0.000426	4.257382	0.721220	-0.000043
1924	1.9134e+02	0.8607	-8.986384	0.000430	4.298318	0.728155	-0.000043
1925	1.9144e+02	0.8520	-9.022638	0.000364	3.643336	0.617198	-0.000036
1926	1.9154e+02	0.8426	-9.064186	0.000418	4.175509	0.707350	-0.000042
1927	1.9164e+02	0.8324	-9.109401	0.000454	4.543936	0.769764	-0.000045
1928	1.9174e+02	0.8216	-9.148914	0.000397	3.970827	0.672676	-0.000040
1929	1.9184e+02	0.8121	-9.186797	0.000381	3.807082	0.644937	-0.000038
1930	1.9194e+02	0.8013	-9.226309	0.000397	3.970827	0.672676	-0.000040
1931	1.9203e+02	0.7931	-9.266636	0.000405	4.052700	0.686546	-0.000041
1932	1.9213e+02	0.7803	-9.305333	0.000389	3.888955	0.658807	-0.000039
1933	1.9223e+02	0.7693	-9.347697	0.000426	4.257382	0.721220	-0.000043
1934	1.9233e+02	0.7609	-9.386802	0.000393	3.929891	0.665742	-0.000039
1935	1.9243e+02	0.7539	-9.427536	0.000409	4.093636	0.693481	-0.000041
1936	1.9253e+02	0.7440	-9.467048	0.000397	3.970827	0.672676	-0.000040
1937	1.9263e+02	0.7314	-9.502894	0.000360	3.602400	0.610263	-0.000036
1938	1.9273e+02	0.7239	-9.548517	0.000458	4.584873	0.776698	-0.000046
1939	1.9283e+02	0.7117	-9.584770	0.000364	3.643336	0.617198	-0.000036
1940	1.9293e+02	0.7011	-9.626727	0.000422	4.216446	0.714285	-0.000042
1941	1.9303e+02	0.6934	-9.665017	0.000385	3.848018	0.651872	-0.000038
1942	1.9313e+02	0.6834	-9.702085	0.000373	3.725209	0.631068	-0.000037
1943	1.9323e+02	0.6731	-9.747707	0.000458	4.584873	0.776698	-0.000046
1944	1.9333e+02	0.6625	-9.786405	0.000389	3.888955	0.658807	-0.000039
1945	1.9343e+02	0.6500	-9.826732	0.000405	4.052700	0.686546	-0.000041
1946	1.9353e+02	0.6438	-9.865022	0.000385	3.848018	0.651872	-0.000038
1947	1.9363e+02	0.6345	-9.900461	0.000356	3.561464	0.603328	-0.000036
1948	1.9373e+02	0.6217	-9.944861	0.000446	4.462064	0.755894	-0.000045
1949	1.9383e+02	0.6116	-9.985595	0.000409	4.093636	0.693481	-0.000041
1950	1.9393e+02	0.6044	-10.026737	0.000413	4.134573	0.700416	-0.000041
1951	1.9403e+02	0.5943	-10.066249	0.000397	3.970827	0.672676	-0.000040
1952	1.9412e+02	0.5824	-10.109835	0.000438	4.380191	0.742024	-0.000044
1953	1.9422e+02	0.5727	-10.150569	0.000409	4.093636	0.693481	-0.000041
1954	1.9432e+02	0.5624	-10.185193	0.000348	3.479591	0.589459	-0.000035
1955	1.9442e+02	0.5550	-10.232445	0.000475	4.748618	0.804438	-0.000047
1956	1.9452e+02	0.5422	-10.271142	0.000389	3.888955	0.658807	-0.000039
1957	1.9462e+02	0.5315	-10.313506	0.000426	4.257382	0.721220	-0.000043
1958	1.9472e+02	0.5247	-10.353426	0.000401	4.011764	0.679611	-0.000040
1959	1.9482e+02	0.5125	-10.393753	0.000405	4.052700	0.686546	-0.000041
1960	1.9492e+02	0.5025	-10.433672	0.000401	4.011764	0.679611	-0.000040
1961	1.9502e+02	0.4900	-10.478072	0.000446	4.462064	0.755894	-0.000045
1962	1.9512e+02	0.4837	-10.517585	0.000397	3.970827	0.672676	-0.000040
1963	1.9522e+02	0.4727	-10.556282	0.000389	3.888955	0.658807	-0.000039
1964	1.9532e+02	0.4651	-10.594980	0.000389	3.888955	0.658807	-0.000039
1965	1.9542e+02	0.4545	-10.635714	0.000409	4.093636	0.693481	-0.000041
1966	1.9552e+02	0.4430	-10.678892	0.000434	4.339255	0.735090	-0.000043
1967	1.9562e+02	0.4354	-10.719627	0.000409	4.093636	0.693481	-0.000041
1968	1.9572e+02	0.4241	-10.761583	0.000422	4.216446	0.714285	-0.000042
1969	1.9582e+02	0.4129	-10.799058	0.000377	3.766146	0.638002	-0.000038
1970	1.9592e+02	0.4032	-10.838978	0.000401	4.011764	0.679611	-0.000040
1971	1.9601e+02	0.3931	-10.884193	0.000454	4.543936	0.769764	-0.000045
1972	1.9611e+02	0.3863	-10.924927	0.000409	4.093636	0.693481	-0.000041
1973	1.9621e+02	0.3725	-10.965661	0.000409	4.093636	0.693481	-0.000041
1974	1.9631e+02	0.3616	-11.005581	0.000401	4.011764	0.679611	-0.000040
1975	1.9641e+02	0.3551	-11.047537	0.000422	4.216446	0.714285	-0.000042
1976	1.9651e+02	0.3425	-11.090308	0.000430	4.298318	0.728155	-0.000043
1977	1.9661e+02	0.3323	-11.129006	0.000389	3.888955	0.658807	-0.000039
1978	1.9671e+02	0.3238	-11.169740	0.000409	4.093636	0.693481	-0.000041
1979	1.9681e+02	0.3128	-11.210882	0.000413	4.134573	0.700416	-0.000041
1980	1.9691e+02	0.3042	-11.254875	0.000442	4.421127	0.748959	-0.000044
1981	1.9701e+02	0.2927	-11.293572	0.000389	3.888955	0.658807	-0.000039
1982	1.9711e+02	0.2872	-11.337973	0.000446	4.462064	0.755894	-0.000045
1983	1.9721e+02	0.2764	-11.377892	0.000401	4.011764	0.679611	-0.000040
1984	1.9731e+02	0.2656	-11.423107	0.000454	4.543936	0.769764	-0.000045
1985	1.9741e+02	0.2526	-11.471174	0.000483	4.830491	0.818307	-0.000048
1986	1.9751e+02	0.2428	-11.509056	0.000381	3.807082	0.644937	-0.000038
1987	1.9761e+02	0.2355	-11.554679	0.000458	4.584873	0.776698	-0.000046
1988	1.9771e+02	0.2237	-11.599486	0.000450	4.503000	0.762829	-0.000045
1989	1.9781e+02	0.2126	-11.636962	0.000377	3.766146	0.638002	-0.000038
1990	1.9791e+02	0.2029	-11.682992	0.000463	4.625809	0.783633	-0.000046
1991	1.9800e+02	0.1939	-11.723319	0.000405	4.052700	0.686546	-0.000041
1992	1.9810e+02	0.1858	-11.764868	0.000418	4.175509	0.707350	-0.000042
1993	1.9820e+02	0.1760	-11.810897	0.000463	4.625809	0.783633	-0.000046
1994	1.9830e+02	0.1650	-11.847965	0.000373	3.725209	0.631068	-0.000037
1995	1.9840e+02	0.1538	-11.889107	0.000413	4.134573	0.700416	-0.000041
1996	1.9850e+02	0.1452	-11.935544	0.000467	4.666746	0.790568	-0.000047
1997	1.9860e+02	0.1353	-11.978722	0.000434	4.339255	0.735090	-0.000043
1998	1.9870e+02	0.1263	-12.021493	0.000430	4.298318	0.728155	-0.000043
1999	1.9880e+02	0.1160	-12.061413	0.000401	4.011764	0.679611	-0.000040
2000	1.9890e+02	0.1062	-12.106221	0.000450	4.503000	0.762829	-0.000045
2001	1.9900e+02	0.0941	-12.145326	0.000393	3.929891	0.665742	-0.000039
2002	1.9910e+02	0.0861	-12.187689	0.000426	4.257382	0.721220	-0.000043
2003	1.9920e+02	0.0745	-12.232904	0.000454	4.543936	0.769764	-0.000045
2004	1.9930e+02	0.0627	-12.267936	0.000352	3.520527	0.596393	-0.000035
2005	1.9940e+02	0.0544	-12.309892	0.000422	4.216446	0.714285	-0.000042
2006	1.9950e+02	0.0436	-12.347775	0.000381	3.807082	0.644937	-0.000038
2007	1.9960e+02	0.0346	-12.392990	0.000454	4.543936	0.769764	-0.000045
2008	1.9970e+02	0.0268	-12.433317	0.000405	4.052700	0.686546	-0.000041
2009	1.9980e+02	0.0182	-12.469163	0.000360	3.602400	0.610263	-0.000036
2010	1.9990e+02	0.0000	-12.514378	0.000454	4.543936	0.769764	-0.000045
2011	2.0000e+02	-0.0034	-12.556334	0.000454	4.543936	0.769764	-0.000042

PMax (uC/cm2):	3.15e+01
Pr (uC/cm2):	3.21e+00
-Pr (uC/cm2):	0.00e+00
PLoss (uC/cm2):	0.00e+00
C (Max-Eff) (nF):	3.15e-01
K (Eff):	5.34e+02
Vert. (+/-Pr) Shift (uC/cm2):	1.61e+00
Offset (uC/cm2):	1.58e+01

A (Loop Area - uC/cm2·Volts):	-3.16e-02



Hysteresis Version: 5.48.1 - Radiant Technologies, Inc., 1999 - 9/12/24

