»»»»»»»»»»»»»»»»»»»»»»»»»»»»»»»»»»»» Hysteresis ««««««««««««««««««««««««««««««««««««
»»»  Executed Version:	5.48.1
»»»  Vision Version:	5.48.4 (R)
»»»  Vision Compiled:	9/18/24
»»»  Driver Version:	5.47.0
»»»  Windows Version:	Windows 8 or 8.1
»»»  Processor Information:	x86 (AMD or Intel) - 32 Processors
»»»  Tester Name:	PMF21124-494 (100V)
»»»  Tester S/N:	PMF21124-494
»»»  Internal Amp Type:	100V RevK 270k
»»»  Internal Amp S/N:	iAB2-596/K     
»»»  Execution Count:	1
»»»»»»»»»»»»»»»»»»»»»»»»»»»»»»»»»»»»»»»»»»««««««««««««««««««««««««««««««««««««««««««

Stored:	6/27/2025 - 12:42:13
Configured:	06/27/25 11:23:28 AM
Executed:	06/27/25 12:41:44 PM

»»»»»»»»»»»»»»»»»»»»»»»»»»»»»»»»»»» Sample Info ««««««««««««««««««««««««««««««««««««
Sample Name:	
Lot Name:	
Wafer Name:	
Die Row/Column:	0/0
Capacitor Number:	0
Sample Area (cm2):	1.00e-04
Sample Thickness (microns):	1.50e-01

Amplifier:	Internal

»»»»»»»»»»»»»»»»»»»»»»»»»»»»»»»»»»» Tester Info «««««««««««««««««««««««««««««««««««
Tester Name:	PMF21124-494 (100V)
Tester Serial Number:	PMF21124-494
Return Signal Amp. Level:	1.9 [Index: 2]

»»»»»»»»»»»»»»»»»»»»»»»»»»»»»»»» Hysteresis Info ««««««««««««««««««««««««««««««««««
Task Name:	Hyst-1276
Volts:	10.00
Field:	666.67 (kV/cm)
DCBias:	0.00
DCField:	0.00 (kV/cm)
Hysteresis Period (ms):	2.00e+02
Preset:	Enabled
Preset Delay (ms):	1.00e+03
Profile:	Standard Monopolar

»»»»»»»»»»»»»»»»»»»»»»»»»»»»»»»»»»»»»» Data «««««««««««««««««««««««««««««««««««««««
Points:	2011

Valid Data

Point	Time (ms)	Drive Voltage	Measured Polarization (uC/cm2)	Capacitance (uF)	Normalized Capacitance (uF/cm2)	Dielectric Constant	Instantaneous Current (mA)
   1	0.0000e+00	-0.0051	-11.325549	0.000250	2.497223	0.423041	0.000025
   2	9.9500e-02	0.0053	-11.300701	0.000250	2.497223	0.423041	0.000025
   3	1.9900e-01	0.0157	-11.279926	0.000209	2.087842	0.353690	0.000021
   4	2.9850e-01	0.0272	-11.253042	0.000270	2.701913	0.457717	0.000027
   5	3.9800e-01	0.0334	-11.222084	0.000311	3.111294	0.527068	0.000031
   6	4.9750e-01	0.0436	-11.202124	0.000201	2.005966	0.339820	0.000020
   7	5.9700e-01	0.0565	-11.177276	0.000250	2.497223	0.423041	0.000025
   8	6.9650e-01	0.0655	-11.149984	0.000274	2.742852	0.464652	0.000027
   9	7.9600e-01	0.0760	-11.129210	0.000209	2.087842	0.353690	0.000021
  10	8.9550e-01	0.0835	-11.100288	0.000291	2.906604	0.492392	0.000029
  11	9.9500e-01	0.0954	-11.076255	0.000242	2.415347	0.409171	0.000024
  12	1.0945e+00	0.1055	-11.051000	0.000254	2.538161	0.429976	0.000025
  13	1.1940e+00	0.1141	-11.030633	0.000205	2.046904	0.346755	0.000020
  14	1.2935e+00	0.1251	-11.002119	0.000287	2.865666	0.485457	0.000029
  15	1.3930e+00	0.1363	-10.979715	0.000225	2.251595	0.381430	0.000023
  16	1.4925e+00	0.1447	-10.950793	0.000291	2.906604	0.492392	0.000029
  17	1.5920e+00	0.1515	-10.925131	0.000258	2.579099	0.436911	0.000026
  18	1.6915e+00	0.1648	-10.906393	0.000188	1.883152	0.319015	0.000019
  19	1.7910e+00	0.1772	-10.877064	0.000295	2.947542	0.499327	0.000029
  20	1.8905e+00	0.1864	-10.851809	0.000254	2.538161	0.429976	0.000025
  21	1.9900e+00	0.1948	-10.823295	0.000287	2.865666	0.485457	0.000029
  22	2.0895e+00	0.2042	-10.800484	0.000229	2.292533	0.388366	0.000023
  23	2.1890e+00	0.2162	-10.776858	0.000237	2.374409	0.402236	0.000024
  24	2.2885e+00	0.2274	-10.748752	0.000282	2.824728	0.478522	0.000028
  25	2.3880e+00	0.2334	-10.726348	0.000225	2.251595	0.381430	0.000023
  26	2.4875e+00	0.2406	-10.700278	0.000262	2.620037	0.443846	0.000026
  27	2.5870e+00	0.2538	-10.675837	0.000246	2.456285	0.416106	0.000025
  28	2.6865e+00	0.2642	-10.652619	0.000233	2.333471	0.395301	0.000023
  29	2.7860e+00	0.2748	-10.627771	0.000250	2.497223	0.423041	0.000025
  30	2.8855e+00	0.2856	-10.603330	0.000246	2.456285	0.416106	0.000025
  31	2.9850e+00	0.2925	-10.576446	0.000270	2.701913	0.457717	0.000027
  32	3.0845e+00	0.3026	-10.554042	0.000225	2.251595	0.381430	0.000023
  33	3.1840e+00	0.3144	-10.530823	0.000233	2.333471	0.395301	0.000023
  34	3.2835e+00	0.3252	-10.502717	0.000282	2.824728	0.478522	0.000028
  35	3.3830e+00	0.3346	-10.479091	0.000237	2.374409	0.402236	0.000024
  36	3.4825e+00	0.3420	-10.453021	0.000262	2.620037	0.443846	0.000026
  37	3.5820e+00	0.3516	-10.422063	0.000311	3.111294	0.527068	0.000031
  38	3.6815e+00	0.3616	-10.395178	0.000270	2.701913	0.457717	0.000027
  39	3.7810e+00	0.3730	-10.370330	0.000250	2.497223	0.423041	0.000025
  40	3.8805e+00	0.3825	-10.341816	0.000287	2.865666	0.485457	0.000029
  41	3.9800e+00	0.3935	-10.315746	0.000262	2.620037	0.443846	0.000026
  42	4.0795e+00	0.4041	-10.293343	0.000225	2.251595	0.381430	0.000023
  43	4.1790e+00	0.4150	-10.262792	0.000307	3.070356	0.520132	0.000031
  44	4.2785e+00	0.4246	-10.237944	0.000250	2.497223	0.423041	0.000025
  45	4.3780e+00	0.4368	-10.211467	0.000266	2.660975	0.450781	0.000027
  46	4.4775e+00	0.4419	-10.185397	0.000262	2.620037	0.443846	0.000026
  47	4.5770e+00	0.4533	-10.158512	0.000270	2.701913	0.457717	0.000027
  48	4.6765e+00	0.4625	-10.131220	0.000274	2.742852	0.464652	0.000027
  49	4.7760e+00	0.4722	-10.103114	0.000282	2.824728	0.478522	0.000028
  50	4.8755e+00	0.4839	-10.077044	0.000262	2.620037	0.443846	0.000026
  51	4.9750e+00	0.4917	-10.046086	0.000311	3.111294	0.527068	0.000031
  52	5.0745e+00	0.5036	-10.021238	0.000250	2.497223	0.423041	0.000025
  53	5.1740e+00	0.5118	-9.991909	0.000295	2.947542	0.499327	0.000029
  54	5.2735e+00	0.5241	-9.967876	0.000242	2.415347	0.409171	0.000024
  55	5.3730e+00	0.5322	-9.940584	0.000274	2.742852	0.464652	0.000027
  56	5.4725e+00	0.5450	-9.917365	0.000233	2.333471	0.395301	0.000023
  57	5.5720e+00	0.5555	-9.896591	0.000209	2.087842	0.353690	0.000021
  58	5.6715e+00	0.5611	-9.872558	0.000242	2.415347	0.409171	0.000024
  59	5.7710e+00	0.5745	-9.849747	0.000229	2.292533	0.388366	0.000023
  60	5.8705e+00	0.5811	-9.829787	0.000201	2.005966	0.339820	0.000020
  61	5.9700e+00	0.5930	-9.804532	0.000254	2.538161	0.429976	0.000025
  62	6.0695e+00	0.6017	-9.784572	0.000201	2.005966	0.339820	0.000020
  63	6.1690e+00	0.6118	-9.762168	0.000225	2.251595	0.381430	0.000023
  64	6.2685e+00	0.6242	-9.738135	0.000242	2.415347	0.409171	0.000024
  65	6.3680e+00	0.6330	-9.714509	0.000237	2.374409	0.402236	0.000024
  66	6.4675e+00	0.6429	-9.691290	0.000233	2.333471	0.395301	0.000023
  67	6.5670e+00	0.6525	-9.666850	0.000246	2.456285	0.416106	0.000025
  68	6.6665e+00	0.6597	-9.649741	0.000172	1.719399	0.291274	0.000017
  69	6.7660e+00	0.6725	-9.623671	0.000262	2.620037	0.443846	0.000026
  70	6.8655e+00	0.6812	-9.603712	0.000201	2.005966	0.339820	0.000020
  71	6.9650e+00	0.6915	-9.579678	0.000242	2.415347	0.409171	0.000024
  72	7.0645e+00	0.7017	-9.558497	0.000213	2.128780	0.360625	0.000021
  73	7.1640e+00	0.7124	-9.539352	0.000192	1.924090	0.325950	0.000019
  74	7.2635e+00	0.7220	-9.512467	0.000270	2.701913	0.457717	0.000027
  75	7.3630e+00	0.7313	-9.491285	0.000213	2.128780	0.360625	0.000021
  76	7.4625e+00	0.7431	-9.466845	0.000246	2.456285	0.416106	0.000025
  77	7.5620e+00	0.7525	-9.441997	0.000250	2.497223	0.423041	0.000025
  78	7.6615e+00	0.7615	-9.417963	0.000242	2.415347	0.409171	0.000024
  79	7.7610e+00	0.7731	-9.393523	0.000246	2.456285	0.416106	0.000025
  80	7.8605e+00	0.7824	-9.371526	0.000221	2.210656	0.374495	0.000022
  81	7.9600e+00	0.7913	-9.344234	0.000274	2.742852	0.464652	0.000027
  82	8.0595e+00	0.8008	-9.322238	0.000221	2.210656	0.374495	0.000022
  83	8.1590e+00	0.8105	-9.294946	0.000274	2.742852	0.464652	0.000027
  84	8.2585e+00	0.8235	-9.273764	0.000213	2.128780	0.360625	0.000021
  85	8.3580e+00	0.8324	-9.249731	0.000242	2.415347	0.409171	0.000024
  86	8.4575e+00	0.8425	-9.219588	0.000303	3.029418	0.513197	0.000030
  87	8.5570e+00	0.8540	-9.195147	0.000246	2.456285	0.416106	0.000025
  88	8.6565e+00	0.8622	-9.173965	0.000213	2.128780	0.360625	0.000021
  89	8.7560e+00	0.8706	-9.150339	0.000237	2.374409	0.402236	0.000024
  90	8.8555e+00	0.8820	-9.125084	0.000254	2.538161	0.429976	0.000025
  91	8.9550e+00	0.8913	-9.102273	0.000229	2.292533	0.388366	0.000023
  92	9.0545e+00	0.9026	-9.080276	0.000221	2.210656	0.374495	0.000022
  93	9.1540e+00	0.9106	-9.056243	0.000242	2.415347	0.409171	0.000024
  94	9.2535e+00	0.9216	-9.029359	0.000270	2.701913	0.457717	0.000027
  95	9.3530e+00	0.9317	-9.005733	0.000237	2.374409	0.402236	0.000024
  96	9.4525e+00	0.9438	-8.981700	0.000242	2.415347	0.409171	0.000024
  97	9.5520e+00	0.9509	-8.958074	0.000237	2.374409	0.402236	0.000024
  98	9.6515e+00	0.9614	-8.933633	0.000246	2.456285	0.416106	0.000025
  99	9.7510e+00	0.9700	-8.904712	0.000291	2.906604	0.492392	0.000029
 100	9.8505e+00	0.9829	-8.882715	0.000221	2.210656	0.374495	0.000022
 101	9.9500e+00	0.9904	-8.857460	0.000254	2.538161	0.429976	0.000025
 102	1.0050e+01	1.0015	-8.833427	0.000242	2.415347	0.409171	0.000024
 103	1.0149e+01	1.0103	-8.808172	0.000254	2.538161	0.429976	0.000025
 104	1.0248e+01	1.0204	-8.782916	0.000254	2.538161	0.429976	0.000025
 105	1.0348e+01	1.0313	-8.759291	0.000237	2.374409	0.402236	0.000024
 106	1.0447e+01	1.0398	-8.737701	0.000217	2.169718	0.367560	0.000022
 107	1.0547e+01	1.0496	-8.712854	0.000250	2.497223	0.423041	0.000025
 108	1.0646e+01	1.0601	-8.682303	0.000307	3.070356	0.520132	0.000031
 109	1.0746e+01	1.0680	-8.658677	0.000237	2.374409	0.402236	0.000024
 110	1.0845e+01	1.0818	-8.637495	0.000213	2.128780	0.360625	0.000021
 111	1.0945e+01	1.0894	-8.611833	0.000258	2.579099	0.436911	0.000026
 112	1.1044e+01	1.0980	-8.584948	0.000270	2.701913	0.457717	0.000027
 113	1.1144e+01	1.1097	-8.561322	0.000237	2.374409	0.402236	0.000024
 114	1.1243e+01	1.1195	-8.537289	0.000242	2.415347	0.409171	0.000024
 115	1.1343e+01	1.1306	-8.507553	0.000299	2.988480	0.506262	0.000030
 116	1.1443e+01	1.1421	-8.483112	0.000246	2.456285	0.416106	0.000025
 117	1.1542e+01	1.1503	-8.459079	0.000242	2.415347	0.409171	0.000024
 118	1.1642e+01	1.1623	-8.435453	0.000237	2.374409	0.402236	0.000024
 119	1.1741e+01	1.1705	-8.415086	0.000205	2.046904	0.346755	0.000020
 120	1.1841e+01	1.1792	-8.387387	0.000278	2.783790	0.471587	0.000028
 121	1.1940e+01	1.1890	-8.362132	0.000254	2.538161	0.429976	0.000025
 122	1.2040e+01	1.2006	-8.344208	0.000180	1.801276	0.305144	0.000018
 123	1.2139e+01	1.2081	-8.320583	0.000237	2.374409	0.402236	0.000024
 124	1.2239e+01	1.2189	-8.298179	0.000225	2.251595	0.381430	0.000023
 125	1.2338e+01	1.2302	-8.270479	0.000278	2.783790	0.471587	0.000028
 126	1.2438e+01	1.2404	-8.251742	0.000188	1.883152	0.319015	0.000019
 127	1.2537e+01	1.2498	-8.224857	0.000270	2.701913	0.457717	0.000027
 128	1.2636e+01	1.2590	-8.200824	0.000242	2.415347	0.409171	0.000024
 129	1.2736e+01	1.2695	-8.181271	0.000197	1.965028	0.332885	0.000020
 130	1.2835e+01	1.2803	-8.154794	0.000266	2.660975	0.450781	0.000027
 131	1.2935e+01	1.2889	-8.134020	0.000209	2.087842	0.353690	0.000021
 132	1.3034e+01	1.2999	-8.112431	0.000217	2.169718	0.367560	0.000022
 133	1.3134e+01	1.3076	-8.087583	0.000250	2.497223	0.423041	0.000025
 134	1.3233e+01	1.3168	-8.068030	0.000197	1.965028	0.332885	0.000020
 135	1.3333e+01	1.3284	-8.043182	0.000250	2.497223	0.423041	0.000025
 136	1.3432e+01	1.3372	-8.021186	0.000221	2.210656	0.374495	0.000022
 137	1.3532e+01	1.3467	-7.995523	0.000258	2.579099	0.436911	0.000026
 138	1.3632e+01	1.3600	-7.972305	0.000233	2.333471	0.395301	0.000023
 139	1.3731e+01	1.3687	-7.944605	0.000278	2.783790	0.471587	0.000028
 140	1.3831e+01	1.3773	-7.921794	0.000229	2.292533	0.388366	0.000023
 141	1.3930e+01	1.3883	-7.892873	0.000291	2.906604	0.492392	0.000029
 142	1.4030e+01	1.3973	-7.867618	0.000254	2.538161	0.429976	0.000025
 143	1.4129e+01	1.4088	-7.836660	0.000311	3.111294	0.527068	0.000031
 144	1.4229e+01	1.4198	-7.812626	0.000242	2.415347	0.409171	0.000024
 145	1.4328e+01	1.4279	-7.786149	0.000266	2.660975	0.450781	0.000027
 146	1.4428e+01	1.4369	-7.756006	0.000303	3.029418	0.513197	0.000030
 147	1.4527e+01	1.4500	-7.727492	0.000287	2.865666	0.485457	0.000029
 148	1.4627e+01	1.4594	-7.701015	0.000266	2.660975	0.450781	0.000027
 149	1.4726e+01	1.4660	-7.678203	0.000229	2.292533	0.388366	0.000023
 150	1.4825e+01	1.4787	-7.646838	0.000315	3.152232	0.534003	0.000032
 151	1.4925e+01	1.4857	-7.619139	0.000278	2.783790	0.471587	0.000028
 152	1.5024e+01	1.4989	-7.593884	0.000254	2.538161	0.429976	0.000025
 153	1.5124e+01	1.5085	-7.564962	0.000291	2.906604	0.492392	0.000029
 154	1.5223e+01	1.5166	-7.536856	0.000282	2.824728	0.478522	0.000028
 155	1.5323e+01	1.5284	-7.507934	0.000291	2.906604	0.492392	0.000029
 156	1.5422e+01	1.5393	-7.480235	0.000278	2.783790	0.471587	0.000028
 157	1.5522e+01	1.5477	-7.454165	0.000262	2.620037	0.443846	0.000026
 158	1.5621e+01	1.5592	-7.427688	0.000266	2.660975	0.450781	0.000027
 159	1.5721e+01	1.5695	-7.400803	0.000270	2.701913	0.457717	0.000027
 160	1.5820e+01	1.5771	-7.376363	0.000246	2.456285	0.416106	0.000025
 161	1.5920e+01	1.5890	-7.348256	0.000282	2.824728	0.478522	0.000028
 162	1.6020e+01	1.5960	-7.324223	0.000242	2.415347	0.409171	0.000024
 163	1.6119e+01	1.6083	-7.296116	0.000282	2.824728	0.478522	0.000028
 164	1.6218e+01	1.6154	-7.268009	0.000282	2.824728	0.478522	0.000028
 165	1.6318e+01	1.6275	-7.242754	0.000254	2.538161	0.429976	0.000025
 166	1.6418e+01	1.6376	-7.219128	0.000237	2.374409	0.402236	0.000024
 167	1.6517e+01	1.6471	-7.193466	0.000258	2.579099	0.436911	0.000026
 168	1.6616e+01	1.6595	-7.161693	0.000319	3.193170	0.540938	0.000032
 169	1.6716e+01	1.6673	-7.140104	0.000217	2.169718	0.367560	0.000022
 170	1.6816e+01	1.6727	-7.116478	0.000237	2.374409	0.402236	0.000024
 171	1.6915e+01	1.6862	-7.089593	0.000270	2.701913	0.457717	0.000027
 172	1.7015e+01	1.6958	-7.065560	0.000242	2.415347	0.409171	0.000024
 173	1.7114e+01	1.7090	-7.041934	0.000237	2.374409	0.402236	0.000024
 174	1.7213e+01	1.7187	-7.011384	0.000307	3.070356	0.520132	0.000031
 175	1.7313e+01	1.7267	-6.982462	0.000291	2.906604	0.492392	0.000029
 176	1.7413e+01	1.7367	-6.960059	0.000225	2.251595	0.381430	0.000023
 177	1.7512e+01	1.7480	-6.935211	0.000250	2.497223	0.423041	0.000025
 178	1.7611e+01	1.7554	-6.907104	0.000282	2.824728	0.478522	0.000028
 179	1.7711e+01	1.7673	-6.881849	0.000254	2.538161	0.429976	0.000025
 180	1.7811e+01	1.7760	-6.857408	0.000246	2.456285	0.416106	0.000025
 181	1.7910e+01	1.7870	-6.829709	0.000278	2.783790	0.471587	0.000028
 182	1.8009e+01	1.7970	-6.806490	0.000233	2.333471	0.395301	0.000023
 183	1.8109e+01	1.8063	-6.782864	0.000237	2.374409	0.402236	0.000024
 184	1.8209e+01	1.8159	-6.758424	0.000246	2.456285	0.416106	0.000025
 185	1.8308e+01	1.8255	-6.731539	0.000270	2.701913	0.457717	0.000027
 186	1.8407e+01	1.8390	-6.705469	0.000262	2.620037	0.443846	0.000026
 187	1.8507e+01	1.8455	-6.679399	0.000262	2.620037	0.443846	0.000026
 188	1.8607e+01	1.8569	-6.655366	0.000242	2.415347	0.409171	0.000024
 189	1.8706e+01	1.8666	-6.629296	0.000262	2.620037	0.443846	0.000026
 190	1.8805e+01	1.8744	-6.602004	0.000274	2.742852	0.464652	0.000027
 191	1.8905e+01	1.8861	-6.580415	0.000217	2.169718	0.367560	0.000022
 192	1.9005e+01	1.8965	-6.552309	0.000282	2.824728	0.478522	0.000028
 193	1.9104e+01	1.9061	-6.523387	0.000291	2.906604	0.492392	0.000029
 194	1.9203e+01	1.9149	-6.503835	0.000197	1.965028	0.332885	0.000020
 195	1.9303e+01	1.9244	-6.478172	0.000258	2.579099	0.436911	0.000026
 196	1.9402e+01	1.9344	-6.454139	0.000242	2.415347	0.409171	0.000024
 197	1.9502e+01	1.9452	-6.429291	0.000250	2.497223	0.423041	0.000025
 198	1.9602e+01	1.9559	-6.408517	0.000209	2.087842	0.353690	0.000021
 199	1.9701e+01	1.9660	-6.382854	0.000258	2.579099	0.436911	0.000026
 200	1.9800e+01	1.9768	-6.356377	0.000266	2.660975	0.450781	0.000027
 201	1.9900e+01	1.9867	-6.329900	0.000266	2.660975	0.450781	0.000027
 202	2.0000e+01	1.9935	-6.306681	0.000233	2.333471	0.395301	0.000023
 203	2.0099e+01	2.0055	-6.282241	0.000246	2.456285	0.416106	0.000025
 204	2.0198e+01	2.0155	-6.255356	0.000270	2.701913	0.457717	0.000027
 205	2.0298e+01	2.0260	-6.226842	0.000287	2.865666	0.485457	0.000029
 206	2.0398e+01	2.0347	-6.200772	0.000262	2.620037	0.443846	0.000026
 207	2.0497e+01	2.0444	-6.169814	0.000311	3.111294	0.527068	0.000031
 208	2.0596e+01	2.0548	-6.141707	0.000282	2.824728	0.478522	0.000028
 209	2.0696e+01	2.0629	-6.120526	0.000213	2.128780	0.360625	0.000021
 210	2.0796e+01	2.0757	-6.090790	0.000299	2.988480	0.506262	0.000030
 211	2.0895e+01	2.0860	-6.067571	0.000233	2.333471	0.395301	0.000023
 212	2.0994e+01	2.0928	-6.039872	0.000278	2.783790	0.471587	0.000028
 213	2.1094e+01	2.1060	-6.015838	0.000242	2.415347	0.409171	0.000024
 214	2.1194e+01	2.1155	-5.986102	0.000299	2.988480	0.506262	0.000030
 215	2.1293e+01	2.1275	-5.960847	0.000254	2.538161	0.429976	0.000025
 216	2.1392e+01	2.1378	-5.935999	0.000250	2.497223	0.423041	0.000025
 217	2.1492e+01	2.1434	-5.906263	0.000299	2.988480	0.506262	0.000030
 218	2.1591e+01	2.1535	-5.881008	0.000254	2.538161	0.429976	0.000025
 219	2.1691e+01	2.1646	-5.852087	0.000291	2.906604	0.492392	0.000029
 220	2.1791e+01	2.1755	-5.825610	0.000266	2.660975	0.450781	0.000027
 221	2.1890e+01	2.1815	-5.800762	0.000250	2.497223	0.423041	0.000025
 222	2.1989e+01	2.1938	-5.773877	0.000270	2.701913	0.457717	0.000027
 223	2.2089e+01	2.2035	-5.751880	0.000221	2.210656	0.374495	0.000022
 224	2.2189e+01	2.2150	-5.724589	0.000274	2.742852	0.464652	0.000027
 225	2.2288e+01	2.2275	-5.705036	0.000197	1.965028	0.332885	0.000020
 226	2.2387e+01	2.2335	-5.680596	0.000246	2.456285	0.416106	0.000025
 227	2.2487e+01	2.2442	-5.656970	0.000237	2.374409	0.402236	0.000024
 228	2.2587e+01	2.2556	-5.635788	0.000213	2.128780	0.360625	0.000021
 229	2.2686e+01	2.2622	-5.614199	0.000217	2.169718	0.367560	0.000022
 230	2.2785e+01	2.2745	-5.591388	0.000229	2.292533	0.388366	0.000023
 231	2.2885e+01	2.2836	-5.567354	0.000242	2.415347	0.409171	0.000024
 232	2.2985e+01	2.2919	-5.547395	0.000201	2.005966	0.339820	0.000020
 233	2.3084e+01	2.3044	-5.523361	0.000242	2.415347	0.409171	0.000024
 234	2.3183e+01	2.3135	-5.500550	0.000229	2.292533	0.388366	0.000023
 235	2.3283e+01	2.3244	-5.480590	0.000201	2.005966	0.339820	0.000020
 236	2.3383e+01	2.3338	-5.456150	0.000246	2.456285	0.416106	0.000025
 237	2.3482e+01	2.3453	-5.438227	0.000180	1.801276	0.305144	0.000018
 238	2.3581e+01	2.3527	-5.415416	0.000229	2.292533	0.388366	0.000023
 239	2.3681e+01	2.3602	-5.388531	0.000270	2.701913	0.457717	0.000027
 240	2.3780e+01	2.3753	-5.370201	0.000184	1.842214	0.312079	0.000018
 241	2.3880e+01	2.3846	-5.348204	0.000221	2.210656	0.374495	0.000022
 242	2.3980e+01	2.3922	-5.322949	0.000254	2.538161	0.429976	0.000025
 243	2.4079e+01	2.4044	-5.299323	0.000237	2.374409	0.402236	0.000024
 244	2.4178e+01	2.4144	-5.276512	0.000229	2.292533	0.388366	0.000023
 245	2.4278e+01	2.4229	-5.251664	0.000250	2.497223	0.423041	0.000025
 246	2.4378e+01	2.4346	-5.231297	0.000205	2.046904	0.346755	0.000020
 247	2.4477e+01	2.4408	-5.205634	0.000258	2.579099	0.436911	0.000026
 248	2.4576e+01	2.4552	-5.188118	0.000176	1.760338	0.298209	0.000018
 249	2.4676e+01	2.4619	-5.158790	0.000295	2.947542	0.499327	0.000029
 250	2.4776e+01	2.4751	-5.135164	0.000237	2.374409	0.402236	0.000024
 251	2.4875e+01	2.4834	-5.112353	0.000229	2.292533	0.388366	0.000023
 252	2.4974e+01	2.4917	-5.086283	0.000262	2.620037	0.443846	0.000026
 253	2.5074e+01	2.5060	-5.063472	0.000229	2.292533	0.388366	0.000023
 254	2.5174e+01	2.5128	-5.039438	0.000242	2.415347	0.409171	0.000024
 255	2.5273e+01	2.5251	-5.014183	0.000254	2.538161	0.429976	0.000025
 256	2.5372e+01	2.5320	-4.993816	0.000205	2.046904	0.346755	0.000020
 257	2.5472e+01	2.5417	-4.969375	0.000246	2.456285	0.416106	0.000025
 258	2.5572e+01	2.5514	-4.943713	0.000258	2.579099	0.436911	0.000026
 259	2.5671e+01	2.5633	-4.923346	0.000205	2.046904	0.346755	0.000020
 260	2.5770e+01	2.5718	-4.898905	0.000246	2.456285	0.416106	0.000025
 261	2.5870e+01	2.5797	-4.876501	0.000225	2.251595	0.381430	0.000023
 262	2.5970e+01	2.5925	-4.852468	0.000242	2.415347	0.409171	0.000024
 263	2.6069e+01	2.6020	-4.828842	0.000237	2.374409	0.402236	0.000024
 264	2.6169e+01	2.6128	-4.800736	0.000282	2.824728	0.478522	0.000028
 265	2.6268e+01	2.6235	-4.779961	0.000209	2.087842	0.353690	0.000021
 266	2.6367e+01	2.6350	-4.755521	0.000246	2.456285	0.416106	0.000025
 267	2.6467e+01	2.6416	-4.729858	0.000258	2.579099	0.436911	0.000026
 268	2.6567e+01	2.6502	-4.701344	0.000287	2.865666	0.485457	0.000029
 269	2.6666e+01	2.6637	-4.679348	0.000221	2.210656	0.374495	0.000022
 270	2.6765e+01	2.6727	-4.659388	0.000201	2.005966	0.339820	0.000020
 271	2.6865e+01	2.6800	-4.633318	0.000262	2.620037	0.443846	0.000026
 272	2.6965e+01	2.6925	-4.612136	0.000213	2.128780	0.360625	0.000021
 273	2.7064e+01	2.7012	-4.584844	0.000274	2.742852	0.464652	0.000027
 274	2.7163e+01	2.7133	-4.565292	0.000197	1.965028	0.332885	0.000020
 275	2.7263e+01	2.7201	-4.538814	0.000266	2.660975	0.450781	0.000027
 276	2.7363e+01	2.7325	-4.513966	0.000250	2.497223	0.423041	0.000025
 277	2.7462e+01	2.7417	-4.491970	0.000221	2.210656	0.374495	0.000022
 278	2.7561e+01	2.7515	-4.466307	0.000258	2.579099	0.436911	0.000026
 279	2.7661e+01	2.7616	-4.440237	0.000262	2.620037	0.443846	0.000026
 280	2.7761e+01	2.7731	-4.416612	0.000237	2.374409	0.402236	0.000024
 281	2.7860e+01	2.7799	-4.390134	0.000266	2.660975	0.450781	0.000027
 282	2.7959e+01	2.7893	-4.368545	0.000217	2.169718	0.367560	0.000022
 283	2.8059e+01	2.8030	-4.343290	0.000254	2.538161	0.429976	0.000025
 284	2.8159e+01	2.8128	-4.313961	0.000295	2.947542	0.499327	0.000029
 285	2.8258e+01	2.8210	-4.289521	0.000246	2.456285	0.416106	0.000025
 286	2.8358e+01	2.8310	-4.271190	0.000184	1.842214	0.312079	0.000018
 287	2.8457e+01	2.8417	-4.247157	0.000242	2.415347	0.409171	0.000024
 288	2.8556e+01	2.8506	-4.223939	0.000233	2.333471	0.395301	0.000023
 289	2.8656e+01	2.8617	-4.201127	0.000229	2.292533	0.388366	0.000023
 290	2.8756e+01	2.8703	-4.175465	0.000258	2.579099	0.436911	0.000026
 291	2.8855e+01	2.8848	-4.156727	0.000188	1.883152	0.319015	0.000019
 292	2.8954e+01	2.8907	-4.131472	0.000254	2.538161	0.429976	0.000025
 293	2.9054e+01	2.8999	-4.107846	0.000237	2.374409	0.402236	0.000024
 294	2.9154e+01	2.9096	-4.087071	0.000209	2.087842	0.353690	0.000021
 295	2.9253e+01	2.9233	-4.064260	0.000229	2.292533	0.388366	0.000023
 296	2.9352e+01	2.9328	-4.038190	0.000262	2.620037	0.443846	0.000026
 297	2.9452e+01	2.9386	-4.016194	0.000221	2.210656	0.374495	0.000022
 298	2.9552e+01	2.9514	-3.993790	0.000225	2.251595	0.381430	0.000023
 299	2.9651e+01	2.9609	-3.972608	0.000213	2.128780	0.360625	0.000021
 300	2.9750e+01	2.9719	-3.951834	0.000209	2.087842	0.353690	0.000021
 301	2.9850e+01	2.9812	-3.932281	0.000197	1.965028	0.332885	0.000020
 302	2.9950e+01	2.9916	-3.906619	0.000258	2.579099	0.436911	0.000026
 303	3.0049e+01	3.0032	-3.884622	0.000221	2.210656	0.374495	0.000022
 304	3.0148e+01	3.0117	-3.859367	0.000254	2.538161	0.429976	0.000025
 305	3.0248e+01	3.0187	-3.839407	0.000201	2.005966	0.339820	0.000020
 306	3.0348e+01	3.0297	-3.815781	0.000237	2.374409	0.402236	0.000024
 307	3.0447e+01	3.0424	-3.789304	0.000266	2.660975	0.450781	0.000027
 308	3.0547e+01	3.0512	-3.766493	0.000229	2.292533	0.388366	0.000023
 309	3.0646e+01	3.0593	-3.737979	0.000287	2.865666	0.485457	0.000029
 310	3.0745e+01	3.0703	-3.713131	0.000250	2.497223	0.423041	0.000025
 311	3.0845e+01	3.0812	-3.683802	0.000295	2.947542	0.499327	0.000029
 312	3.0945e+01	3.0903	-3.658140	0.000258	2.579099	0.436911	0.000026
 313	3.1044e+01	3.1030	-3.630033	0.000282	2.824728	0.478522	0.000028
 314	3.1143e+01	3.1112	-3.603963	0.000262	2.620037	0.443846	0.000026
 315	3.1243e+01	3.1205	-3.580745	0.000233	2.333471	0.395301	0.000023
 316	3.1343e+01	3.1299	-3.554675	0.000262	2.620037	0.443846	0.000026
 317	3.1442e+01	3.1388	-3.527790	0.000270	2.701913	0.457717	0.000027
 318	3.1541e+01	3.1478	-3.501720	0.000262	2.620037	0.443846	0.000026
 319	3.1641e+01	3.1593	-3.472799	0.000291	2.906604	0.492392	0.000029
 320	3.1741e+01	3.1681	-3.445507	0.000274	2.742852	0.464652	0.000027
 321	3.1840e+01	3.1808	-3.419844	0.000258	2.579099	0.436911	0.000026
 322	3.1939e+01	3.1893	-3.393774	0.000262	2.620037	0.443846	0.000026
 323	3.2039e+01	3.2021	-3.364446	0.000295	2.947542	0.499327	0.000029
 324	3.2139e+01	3.2095	-3.335524	0.000291	2.906604	0.492392	0.000029
 325	3.2238e+01	3.2197	-3.310269	0.000254	2.538161	0.429976	0.000025
 326	3.2337e+01	3.2277	-3.285421	0.000250	2.497223	0.423041	0.000025
 327	3.2437e+01	3.2396	-3.260166	0.000254	2.538161	0.429976	0.000025
 328	3.2536e+01	3.2518	-3.234504	0.000258	2.579099	0.436911	0.000026
 329	3.2636e+01	3.2581	-3.208841	0.000258	2.579099	0.436911	0.000026
 330	3.2736e+01	3.2684	-3.184808	0.000242	2.415347	0.409171	0.000024
 331	3.2835e+01	3.2798	-3.161182	0.000237	2.374409	0.402236	0.000024
 332	3.2934e+01	3.2941	-3.135112	0.000262	2.620037	0.443846	0.000026
 333	3.3034e+01	3.3001	-3.108227	0.000270	2.701913	0.457717	0.000027
 334	3.3133e+01	3.3107	-3.084194	0.000242	2.415347	0.409171	0.000024
 335	3.3233e+01	3.3205	-3.060161	0.000242	2.415347	0.409171	0.000024
 336	3.3333e+01	3.3276	-3.033684	0.000266	2.660975	0.450781	0.000027
 337	3.3432e+01	3.3392	-3.011280	0.000225	2.251595	0.381430	0.000023
 338	3.3532e+01	3.3485	-2.984395	0.000270	2.701913	0.457717	0.000027
 339	3.3631e+01	3.3602	-2.960362	0.000242	2.415347	0.409171	0.000024
 340	3.3730e+01	3.3681	-2.933477	0.000270	2.701913	0.457717	0.000027
 341	3.3830e+01	3.3788	-2.913110	0.000205	2.046904	0.346755	0.000020
 342	3.3929e+01	3.3875	-2.882152	0.000311	3.111294	0.527068	0.000031
 343	3.4029e+01	3.4003	-2.861378	0.000209	2.087842	0.353690	0.000021
 344	3.4129e+01	3.4103	-2.832049	0.000295	2.947542	0.499327	0.000029
 345	3.4228e+01	3.4214	-2.808016	0.000242	2.415347	0.409171	0.000024
 346	3.4328e+01	3.4292	-2.783575	0.000246	2.456285	0.416106	0.000025
 347	3.4427e+01	3.4415	-2.759949	0.000237	2.374409	0.402236	0.000024
 348	3.4526e+01	3.4473	-2.731843	0.000282	2.824728	0.478522	0.000028
 349	3.4626e+01	3.4594	-2.708624	0.000233	2.333471	0.395301	0.000023
 350	3.4725e+01	3.4710	-2.687850	0.000209	2.087842	0.353690	0.000021
 351	3.4825e+01	3.4783	-2.660151	0.000278	2.783790	0.471587	0.000028
 352	3.4925e+01	3.4882	-2.637747	0.000225	2.251595	0.381430	0.000023
 353	3.5024e+01	3.5003	-2.612084	0.000258	2.579099	0.436911	0.000026
 354	3.5123e+01	3.5083	-2.588458	0.000237	2.374409	0.402236	0.000024
 355	3.5223e+01	3.5216	-2.564832	0.000237	2.374409	0.402236	0.000024
 356	3.5322e+01	3.5299	-2.539577	0.000254	2.538161	0.429976	0.000025
 357	3.5422e+01	3.5371	-2.515951	0.000237	2.374409	0.402236	0.000024
 358	3.5522e+01	3.5480	-2.489881	0.000262	2.620037	0.443846	0.000026
 359	3.5621e+01	3.5587	-2.467885	0.000221	2.210656	0.374495	0.000022
 360	3.5721e+01	3.5685	-2.443444	0.000246	2.456285	0.416106	0.000025
 361	3.5820e+01	3.5804	-2.416967	0.000266	2.660975	0.450781	0.000027
 362	3.5919e+01	3.5895	-2.393749	0.000233	2.333471	0.395301	0.000023
 363	3.6019e+01	3.5981	-2.373381	0.000205	2.046904	0.346755	0.000020
 364	3.6118e+01	3.6095	-2.349756	0.000237	2.374409	0.402236	0.000024
 365	3.6218e+01	3.6182	-2.323278	0.000266	2.660975	0.450781	0.000027
 366	3.6318e+01	3.6306	-2.302504	0.000209	2.087842	0.353690	0.000021
 367	3.6417e+01	3.6389	-2.279693	0.000229	2.292533	0.388366	0.000023
 368	3.6517e+01	3.6486	-2.251993	0.000278	2.783790	0.471587	0.000028
 369	3.6616e+01	3.6591	-2.230811	0.000213	2.128780	0.360625	0.000021
 370	3.6715e+01	3.6708	-2.204334	0.000266	2.660975	0.450781	0.000027
 371	3.6815e+01	3.6788	-2.180708	0.000237	2.374409	0.402236	0.000024
 372	3.6914e+01	3.6884	-2.154231	0.000266	2.660975	0.450781	0.000027
 373	3.7014e+01	3.7000	-2.128976	0.000254	2.538161	0.429976	0.000025
 374	3.7114e+01	3.7066	-2.099647	0.000295	2.947542	0.499327	0.000029
 375	3.7213e+01	3.7168	-2.075207	0.000246	2.456285	0.416106	0.000025
 376	3.7313e+01	3.7263	-2.051173	0.000242	2.415347	0.409171	0.000024
 377	3.7412e+01	3.7377	-2.025511	0.000258	2.579099	0.436911	0.000026
 378	3.7511e+01	3.7484	-2.003922	0.000217	2.169718	0.367560	0.000022
 379	3.7611e+01	3.7544	-1.974186	0.000299	2.988480	0.506262	0.000030
 380	3.7711e+01	3.7667	-1.948930	0.000254	2.538161	0.429976	0.000025
 381	3.7810e+01	3.7783	-1.926527	0.000225	2.251595	0.381430	0.000023
 382	3.7910e+01	3.7865	-1.900049	0.000266	2.660975	0.450781	0.000027
 383	3.8009e+01	3.7952	-1.871943	0.000282	2.824728	0.478522	0.000028
 384	3.8108e+01	3.8065	-1.852798	0.000192	1.924090	0.325950	0.000019
 385	3.8208e+01	3.8177	-1.823062	0.000299	2.988480	0.506262	0.000030
 386	3.8307e+01	3.8265	-1.792511	0.000307	3.070356	0.520132	0.000031
 387	3.8407e+01	3.8374	-1.768478	0.000242	2.415347	0.409171	0.000024
 388	3.8507e+01	3.8462	-1.746481	0.000221	2.210656	0.374495	0.000022
 389	3.8606e+01	3.8564	-1.723670	0.000229	2.292533	0.388366	0.000023
 390	3.8706e+01	3.8674	-1.695563	0.000282	2.824728	0.478522	0.000028
 391	3.8805e+01	3.8790	-1.675196	0.000205	2.046904	0.346755	0.000020
 392	3.8904e+01	3.8856	-1.652792	0.000225	2.251595	0.381430	0.000023
 393	3.9004e+01	3.8976	-1.629574	0.000233	2.333471	0.395301	0.000023
 394	3.9103e+01	3.9068	-1.607170	0.000225	2.251595	0.381430	0.000023
 395	3.9203e+01	3.9161	-1.584359	0.000229	2.292533	0.388366	0.000023
 396	3.9303e+01	3.9245	-1.566436	0.000180	1.801276	0.305144	0.000018
 397	3.9402e+01	3.9367	-1.541588	0.000250	2.497223	0.423041	0.000025
 398	3.9502e+01	3.9471	-1.518777	0.000229	2.292533	0.388366	0.000023
 399	3.9601e+01	3.9551	-1.500446	0.000184	1.842214	0.312079	0.000018
 400	3.9700e+01	3.9651	-1.478042	0.000225	2.251595	0.381430	0.000023
 401	3.9800e+01	3.9752	-1.460934	0.000172	1.719399	0.291274	0.000017
 402	3.9900e+01	3.9860	-1.436086	0.000250	2.497223	0.423041	0.000025
 403	3.9999e+01	3.9960	-1.415719	0.000205	2.046904	0.346755	0.000020
 404	4.0099e+01	4.0073	-1.394945	0.000209	2.087842	0.353690	0.000021
 405	4.0198e+01	4.0158	-1.375392	0.000197	1.965028	0.332885	0.000020
 406	4.0297e+01	4.0245	-1.353803	0.000217	2.169718	0.367560	0.000022
 407	4.0397e+01	4.0362	-1.334658	0.000192	1.924090	0.325950	0.000019
 408	4.0496e+01	4.0466	-1.314291	0.000205	2.046904	0.346755	0.000020
 409	4.0596e+01	4.0565	-1.287813	0.000266	2.660975	0.450781	0.000027
 410	4.0696e+01	4.0641	-1.271520	0.000164	1.637523	0.277404	0.000016
 411	4.0795e+01	4.0743	-1.247079	0.000246	2.456285	0.416106	0.000025
 412	4.0895e+01	4.0853	-1.228341	0.000188	1.883152	0.319015	0.000019
 413	4.0994e+01	4.0965	-1.202679	0.000258	2.579099	0.436911	0.000026
 414	4.1093e+01	4.1049	-1.183126	0.000197	1.965028	0.332885	0.000020
 415	4.1193e+01	4.1164	-1.157464	0.000258	2.579099	0.436911	0.000026
 416	4.1292e+01	4.1244	-1.136689	0.000209	2.087842	0.353690	0.000021
 417	4.1392e+01	4.1340	-1.114286	0.000225	2.251595	0.381430	0.000023
 418	4.1492e+01	4.1442	-1.091882	0.000225	2.251595	0.381430	0.000023
 419	4.1591e+01	4.1532	-1.068256	0.000237	2.374409	0.402236	0.000024
 420	4.1691e+01	4.1647	-1.043815	0.000246	2.456285	0.416106	0.000025
 421	4.1790e+01	4.1752	-1.021411	0.000225	2.251595	0.381430	0.000023
 422	4.1889e+01	4.1834	-0.996971	0.000246	2.456285	0.416106	0.000025
 423	4.1989e+01	4.1914	-0.974974	0.000221	2.210656	0.374495	0.000022
 424	4.2089e+01	4.2057	-0.951349	0.000237	2.374409	0.402236	0.000024
 425	4.2188e+01	4.2144	-0.930981	0.000205	2.046904	0.346755	0.000020
 426	4.2288e+01	4.2242	-0.907356	0.000237	2.374409	0.402236	0.000024
 427	4.2387e+01	4.2359	-0.887396	0.000201	2.005966	0.339820	0.000020
 428	4.2486e+01	4.2446	-0.862548	0.000250	2.497223	0.423041	0.000025
 429	4.2586e+01	4.2542	-0.839329	0.000233	2.333471	0.395301	0.000023
 430	4.2685e+01	4.2657	-0.816518	0.000229	2.292533	0.388366	0.000023
 431	4.2785e+01	4.2773	-0.796966	0.000197	1.965028	0.332885	0.000020
 432	4.2885e+01	4.2836	-0.774969	0.000221	2.210656	0.374495	0.000022
 433	4.2984e+01	4.2934	-0.749714	0.000254	2.538161	0.429976	0.000025
 434	4.3084e+01	4.3066	-0.724051	0.000258	2.579099	0.436911	0.000026
 435	4.3183e+01	4.3142	-0.706128	0.000180	1.801276	0.305144	0.000018
 436	4.3282e+01	4.3240	-0.681280	0.000250	2.497223	0.423041	0.000025
 437	4.3382e+01	4.3368	-0.660099	0.000213	2.128780	0.360625	0.000021
 438	4.3481e+01	4.3436	-0.636880	0.000233	2.333471	0.395301	0.000023
 439	4.3581e+01	4.3533	-0.609995	0.000270	2.701913	0.457717	0.000027
 440	4.3681e+01	4.3652	-0.592072	0.000180	1.801276	0.305144	0.000018
 441	4.3780e+01	4.3752	-0.568039	0.000242	2.415347	0.409171	0.000024
 442	4.3880e+01	4.3840	-0.547672	0.000205	2.046904	0.346755	0.000020
 443	4.3979e+01	4.3944	-0.521602	0.000262	2.620037	0.443846	0.000026
 444	4.4078e+01	4.4044	-0.500013	0.000217	2.169718	0.367560	0.000022
 445	4.4178e+01	4.4141	-0.478016	0.000221	2.210656	0.374495	0.000022
 446	4.4278e+01	4.4247	-0.453169	0.000250	2.497223	0.423041	0.000025
 447	4.4377e+01	4.4326	-0.429135	0.000242	2.415347	0.409171	0.000024
 448	4.4477e+01	4.4447	-0.405510	0.000237	2.374409	0.402236	0.000024
 449	4.4576e+01	4.4525	-0.379440	0.000262	2.620037	0.443846	0.000026
 450	4.4675e+01	4.4618	-0.362331	0.000172	1.719399	0.291274	0.000017
 451	4.4775e+01	4.4730	-0.333410	0.000291	2.906604	0.492392	0.000029
 452	4.4874e+01	4.4843	-0.311821	0.000217	2.169718	0.367560	0.000022
 453	4.4974e+01	4.4927	-0.290639	0.000213	2.128780	0.360625	0.000021
 454	4.5074e+01	4.5026	-0.268642	0.000221	2.210656	0.374495	0.000022
 455	4.5173e+01	4.5126	-0.241350	0.000274	2.742852	0.464652	0.000027
 456	4.5273e+01	4.5214	-0.228723	0.000127	1.269081	0.214988	0.000013
 457	4.5372e+01	4.5321	-0.201431	0.000274	2.742852	0.464652	0.000027
 458	4.5471e+01	4.5447	-0.182693	0.000188	1.883152	0.319015	0.000019
 459	4.5571e+01	4.5550	-0.160289	0.000225	2.251595	0.381430	0.000023
 460	4.5670e+01	4.5620	-0.142774	0.000176	1.760338	0.298209	0.000018
 461	4.5770e+01	4.5740	-0.121592	0.000213	2.128780	0.360625	0.000021
 462	4.5870e+01	4.5844	-0.095114	0.000266	2.660975	0.450781	0.000027
 463	4.5969e+01	4.5940	-0.076377	0.000188	1.883152	0.319015	0.000019
 464	4.6069e+01	4.6047	-0.054788	0.000217	2.169718	0.367560	0.000022
 465	4.6168e+01	4.6136	-0.028310	0.000266	2.660975	0.450781	0.000027
 466	4.6267e+01	4.6233	-0.007536	0.000209	2.087842	0.353690	0.000021
 467	4.6367e+01	4.6329	0.014461	0.000221	2.210656	0.374495	0.000022
 468	4.6467e+01	4.6420	0.031976	0.000176	1.760338	0.298209	0.000018
 469	4.6566e+01	4.6534	0.050307	0.000184	1.842214	0.312079	0.000018
 470	4.6666e+01	4.6619	0.069452	0.000192	1.924090	0.325950	0.000019
 471	4.6765e+01	4.6712	0.094707	0.000254	2.538161	0.429976	0.000025
 472	4.6864e+01	4.6822	0.116296	0.000217	2.169718	0.367560	0.000022
 473	4.6964e+01	4.6915	0.137071	0.000209	2.087842	0.353690	0.000021
 474	4.7063e+01	4.7036	0.159067	0.000221	2.210656	0.374495	0.000022
 475	4.7163e+01	4.7128	0.180656	0.000217	2.169718	0.367560	0.000022
 476	4.7263e+01	4.7227	0.207134	0.000266	2.660975	0.450781	0.000027
 477	4.7362e+01	4.7316	0.234833	0.000278	2.783790	0.471587	0.000028
 478	4.7462e+01	4.7424	0.258052	0.000233	2.333471	0.395301	0.000023
 479	4.7561e+01	4.7521	0.283714	0.000258	2.579099	0.436911	0.000026
 480	4.7660e+01	4.7620	0.310599	0.000270	2.701913	0.457717	0.000027
 481	4.7760e+01	4.7701	0.336669	0.000262	2.620037	0.443846	0.000026
 482	4.7859e+01	4.7821	0.359480	0.000229	2.292533	0.388366	0.000023
 483	4.7959e+01	4.7919	0.386364	0.000270	2.701913	0.457717	0.000027
 484	4.8059e+01	4.8016	0.411620	0.000254	2.538161	0.429976	0.000025
 485	4.8158e+01	4.8125	0.436060	0.000246	2.456285	0.416106	0.000025
 486	4.8258e+01	4.8242	0.461315	0.000254	2.538161	0.429976	0.000025
 487	4.8357e+01	4.8326	0.483719	0.000225	2.251595	0.381430	0.000023
 488	4.8456e+01	4.8431	0.509789	0.000262	2.620037	0.443846	0.000026
 489	4.8556e+01	4.8514	0.539118	0.000295	2.947542	0.499327	0.000029
 490	4.8656e+01	4.8614	0.563151	0.000242	2.415347	0.409171	0.000024
 491	4.8755e+01	4.8711	0.585962	0.000229	2.292533	0.388366	0.000023
 492	4.8855e+01	4.8811	0.612847	0.000270	2.701913	0.457717	0.000027
 493	4.8954e+01	4.8932	0.641768	0.000291	2.906604	0.492392	0.000029
 494	4.9053e+01	4.9035	0.665394	0.000237	2.374409	0.402236	0.000024
 495	4.9153e+01	4.9111	0.689020	0.000237	2.374409	0.402236	0.000024
 496	4.9252e+01	4.9213	0.713460	0.000246	2.456285	0.416106	0.000025
 497	4.9352e+01	4.9339	0.732606	0.000192	1.924090	0.325950	0.000019
 498	4.9452e+01	4.9403	0.758676	0.000262	2.620037	0.443846	0.000026
 499	4.9551e+01	4.9505	0.782301	0.000237	2.374409	0.402236	0.000024
 500	4.9651e+01	4.9613	0.807149	0.000250	2.497223	0.423041	0.000025
 501	4.9750e+01	4.9717	0.831182	0.000242	2.415347	0.409171	0.000024
 502	4.9849e+01	4.9816	0.852772	0.000217	2.169718	0.367560	0.000022
 503	4.9949e+01	4.9917	0.876805	0.000242	2.415347	0.409171	0.000024
 504	5.0048e+01	4.9996	0.897579	0.000209	2.087842	0.353690	0.000021
 505	5.0148e+01	5.0121	0.923242	0.000258	2.579099	0.436911	0.000026
 506	5.0248e+01	5.0220	0.944424	0.000213	2.128780	0.360625	0.000021
 507	5.0347e+01	5.0330	0.968050	0.000237	2.374409	0.402236	0.000024
 508	5.0447e+01	5.0416	0.990046	0.000221	2.210656	0.374495	0.000022
 509	5.0546e+01	5.0497	1.019375	0.000295	2.947542	0.499327	0.000029
 510	5.0645e+01	5.0619	1.039742	0.000205	2.046904	0.346755	0.000020
 511	5.0745e+01	5.0686	1.065812	0.000262	2.620037	0.443846	0.000026
 512	5.0844e+01	5.0802	1.088623	0.000229	2.292533	0.388366	0.000023
 513	5.0944e+01	5.0898	1.111841	0.000233	2.333471	0.395301	0.000023
 514	5.1044e+01	5.1034	1.135875	0.000242	2.415347	0.409171	0.000024
 515	5.1143e+01	5.1102	1.155427	0.000197	1.965028	0.332885	0.000020
 516	5.1242e+01	5.1181	1.180275	0.000250	2.497223	0.423041	0.000025
 517	5.1342e+01	5.1304	1.206752	0.000266	2.660975	0.450781	0.000027
 518	5.1441e+01	5.1379	1.227119	0.000205	2.046904	0.346755	0.000020
 519	5.1541e+01	5.1496	1.251560	0.000246	2.456285	0.416106	0.000025
 520	5.1641e+01	5.1604	1.271927	0.000205	2.046904	0.346755	0.000020
 521	5.1740e+01	5.1693	1.297590	0.000258	2.579099	0.436911	0.000026
 522	5.1840e+01	5.1786	1.319179	0.000217	2.169718	0.367560	0.000022
 523	5.1939e+01	5.1908	1.344027	0.000250	2.497223	0.423041	0.000025
 524	5.2038e+01	5.2012	1.366431	0.000225	2.251595	0.381430	0.000023
 525	5.2138e+01	5.2108	1.391278	0.000250	2.497223	0.423041	0.000025
 526	5.2237e+01	5.2190	1.413682	0.000225	2.251595	0.381430	0.000023
 527	5.2337e+01	5.2297	1.436901	0.000233	2.333471	0.395301	0.000023
 528	5.2437e+01	5.2394	1.458490	0.000217	2.169718	0.367560	0.000022
 529	5.2536e+01	5.2492	1.479264	0.000209	2.087842	0.353690	0.000021
 530	5.2636e+01	5.2579	1.502483	0.000233	2.333471	0.395301	0.000023
 531	5.2735e+01	5.2695	1.522850	0.000205	2.046904	0.346755	0.000020
 532	5.2834e+01	5.2796	1.543217	0.000205	2.046904	0.346755	0.000020
 533	5.2934e+01	5.2908	1.566028	0.000229	2.292533	0.388366	0.000023
 534	5.3033e+01	5.2998	1.591284	0.000254	2.538161	0.429976	0.000025
 535	5.3133e+01	5.3080	1.611651	0.000205	2.046904	0.346755	0.000020
 536	5.3233e+01	5.3176	1.633240	0.000217	2.169718	0.367560	0.000022
 537	5.3332e+01	5.3298	1.657273	0.000242	2.415347	0.409171	0.000024
 538	5.3431e+01	5.3387	1.680492	0.000233	2.333471	0.395301	0.000023
 539	5.3531e+01	5.3495	1.706562	0.000262	2.620037	0.443846	0.000026
 540	5.3630e+01	5.3583	1.729780	0.000233	2.333471	0.395301	0.000023
 541	5.3730e+01	5.3707	1.756665	0.000270	2.701913	0.457717	0.000027
 542	5.3830e+01	5.3770	1.777032	0.000205	2.046904	0.346755	0.000020
 543	5.3929e+01	5.3887	1.802694	0.000258	2.579099	0.436911	0.000026
 544	5.4029e+01	5.3973	1.827950	0.000254	2.538161	0.429976	0.000025
 545	5.4128e+01	5.4093	1.850354	0.000225	2.251595	0.381430	0.000023
 546	5.4227e+01	5.4183	1.873572	0.000233	2.333471	0.395301	0.000023
 547	5.4327e+01	5.4328	1.899642	0.000262	2.620037	0.443846	0.000026
 548	5.4426e+01	5.4389	1.922453	0.000229	2.292533	0.388366	0.000023
 549	5.4526e+01	5.4473	1.943635	0.000213	2.128780	0.360625	0.000021
 550	5.4626e+01	5.4592	1.969298	0.000258	2.579099	0.436911	0.000026
 551	5.4725e+01	5.4688	1.989257	0.000201	2.005966	0.339820	0.000020
 552	5.4825e+01	5.4787	2.019808	0.000307	3.070356	0.520132	0.000031
 553	5.4924e+01	5.4873	2.045063	0.000254	2.538161	0.429976	0.000025
 554	5.5023e+01	5.4987	2.069911	0.000250	2.497223	0.423041	0.000025
 555	5.5123e+01	5.5106	2.093944	0.000242	2.415347	0.409171	0.000024
 556	5.5222e+01	5.5183	2.115126	0.000213	2.128780	0.360625	0.000021
 557	5.5322e+01	5.5288	2.137530	0.000225	2.251595	0.381430	0.000023
 558	5.5422e+01	5.5367	2.163600	0.000262	2.620037	0.443846	0.000026
 559	5.5521e+01	5.5484	2.182338	0.000188	1.883152	0.319015	0.000019
 560	5.5620e+01	5.5578	2.203927	0.000217	2.169718	0.367560	0.000022
 561	5.5720e+01	5.5674	2.225109	0.000213	2.128780	0.360625	0.000021
 562	5.5819e+01	5.5799	2.243032	0.000180	1.801276	0.305144	0.000018
 563	5.5919e+01	5.5909	2.263806	0.000209	2.087842	0.353690	0.000021
 564	5.6019e+01	5.5988	2.282951	0.000192	1.924090	0.325950	0.000019
 565	5.6118e+01	5.6086	2.302096	0.000192	1.924090	0.325950	0.000019
 566	5.6218e+01	5.6197	2.323278	0.000213	2.128780	0.360625	0.000021
 567	5.6317e+01	5.6297	2.343238	0.000201	2.005966	0.339820	0.000020
 568	5.6416e+01	5.6370	2.364420	0.000213	2.128780	0.360625	0.000021
 569	5.6516e+01	5.6472	2.383972	0.000197	1.965028	0.332885	0.000020
 570	5.6615e+01	5.6580	2.403525	0.000197	1.965028	0.332885	0.000020
 571	5.6715e+01	5.6673	2.421855	0.000184	1.842214	0.312079	0.000018
 572	5.6815e+01	5.6770	2.441408	0.000197	1.965028	0.332885	0.000020
 573	5.6914e+01	5.6882	2.458109	0.000168	1.678461	0.284339	0.000017
 574	5.7014e+01	5.6973	2.476846	0.000188	1.883152	0.319015	0.000019
 575	5.7113e+01	5.7081	2.499658	0.000229	2.292533	0.388366	0.000023
 576	5.7212e+01	5.7174	2.517173	0.000176	1.760338	0.298209	0.000018
 577	5.7312e+01	5.7281	2.539170	0.000221	2.210656	0.374495	0.000022
 578	5.7411e+01	5.7352	2.559944	0.000209	2.087842	0.353690	0.000021
 579	5.7511e+01	5.7473	2.579089	0.000192	1.924090	0.325950	0.000019
 580	5.7611e+01	5.7563	2.599049	0.000201	2.005966	0.339820	0.000020
 581	5.7710e+01	5.7666	2.619009	0.000201	2.005966	0.339820	0.000020
 582	5.7809e+01	5.7780	2.643449	0.000246	2.456285	0.416106	0.000025
 583	5.7909e+01	5.7869	2.662595	0.000192	1.924090	0.325950	0.000019
 584	5.8008e+01	5.7970	2.688665	0.000262	2.620037	0.443846	0.000026
 585	5.8108e+01	5.8050	2.703329	0.000147	1.473771	0.249664	0.000015
 586	5.8208e+01	5.8185	2.724511	0.000213	2.128780	0.360625	0.000021
 587	5.8307e+01	5.8270	2.746100	0.000217	2.169718	0.367560	0.000022
 588	5.8407e+01	5.8346	2.772170	0.000262	2.620037	0.443846	0.000026
 589	5.8506e+01	5.8462	2.790500	0.000184	1.842214	0.312079	0.000018
 590	5.8605e+01	5.8568	2.813311	0.000229	2.292533	0.388366	0.000023
 591	5.8705e+01	5.8662	2.831642	0.000184	1.842214	0.312079	0.000018
 592	5.8804e+01	5.8758	2.856082	0.000246	2.456285	0.416106	0.000025
 593	5.8904e+01	5.8862	2.874005	0.000180	1.801276	0.305144	0.000018
 594	5.9004e+01	5.8967	2.895595	0.000217	2.169718	0.367560	0.000022
 595	5.9103e+01	5.9064	2.921257	0.000258	2.579099	0.436911	0.000026
 596	5.9203e+01	5.9147	2.940402	0.000192	1.924090	0.325950	0.000019
 597	5.9302e+01	5.9260	2.958733	0.000184	1.842214	0.312079	0.000018
 598	5.9401e+01	5.9368	2.980322	0.000217	2.169718	0.367560	0.000022
 599	5.9501e+01	5.9455	3.004762	0.000246	2.456285	0.416106	0.000025
 600	5.9600e+01	5.9562	3.021463	0.000168	1.678461	0.284339	0.000017
 601	5.9700e+01	5.9670	3.044275	0.000229	2.292533	0.388366	0.000023
 602	5.9800e+01	5.9753	3.067086	0.000229	2.292533	0.388366	0.000023
 603	5.9899e+01	5.9855	3.091526	0.000246	2.456285	0.416106	0.000025
 604	5.9998e+01	5.9943	3.107820	0.000164	1.637523	0.277404	0.000016
 605	6.0098e+01	6.0033	3.133890	0.000262	2.620037	0.443846	0.000026
 606	6.0197e+01	6.0189	3.151406	0.000176	1.760338	0.298209	0.000018
 607	6.0297e+01	6.0261	3.174217	0.000229	2.292533	0.388366	0.000023
 608	6.0397e+01	6.0352	3.193769	0.000197	1.965028	0.332885	0.000020
 609	6.0496e+01	6.0455	3.215358	0.000217	2.169718	0.367560	0.000022
 610	6.0596e+01	6.0531	3.240206	0.000250	2.497223	0.423041	0.000025
 611	6.0695e+01	6.0661	3.255685	0.000156	1.555647	0.263534	0.000016
 612	6.0794e+01	6.0777	3.279719	0.000242	2.415347	0.409171	0.000024
 613	6.0894e+01	6.0838	3.301715	0.000221	2.210656	0.374495	0.000022
 614	6.0993e+01	6.0954	3.326563	0.000250	2.497223	0.423041	0.000025
 615	6.1093e+01	6.1073	3.346523	0.000201	2.005966	0.339820	0.000020
 616	6.1193e+01	6.1165	3.369334	0.000229	2.292533	0.388366	0.000023
 617	6.1292e+01	6.1278	3.391330	0.000221	2.210656	0.374495	0.000022
 618	6.1392e+01	6.1358	3.413327	0.000221	2.210656	0.374495	0.000022
 619	6.1491e+01	6.1457	3.436138	0.000229	2.292533	0.388366	0.000023
 620	6.1590e+01	6.1552	3.456913	0.000209	2.087842	0.353690	0.000021
 621	6.1690e+01	6.1645	3.475650	0.000188	1.883152	0.319015	0.000019
 622	6.1789e+01	6.1745	3.496425	0.000209	2.087842	0.353690	0.000021
 623	6.1889e+01	6.1857	3.519236	0.000229	2.292533	0.388366	0.000023
 624	6.1989e+01	6.1956	3.537566	0.000184	1.842214	0.312079	0.000018
 625	6.2088e+01	6.2048	3.557119	0.000197	1.965028	0.332885	0.000020
 626	6.2188e+01	6.2150	3.577893	0.000209	2.087842	0.353690	0.000021
 627	6.2287e+01	6.2263	3.596631	0.000188	1.883152	0.319015	0.000019
 628	6.2386e+01	6.2322	3.613739	0.000172	1.719399	0.291274	0.000017
 629	6.2486e+01	6.2453	3.638995	0.000254	2.538161	0.429976	0.000025
 630	6.2586e+01	6.2513	3.656103	0.000172	1.719399	0.291274	0.000017
 631	6.2685e+01	6.2653	3.677285	0.000213	2.128780	0.360625	0.000021
 632	6.2785e+01	6.2757	3.695208	0.000180	1.801276	0.305144	0.000018
 633	6.2884e+01	6.2849	3.719241	0.000242	2.415347	0.409171	0.000024
 634	6.2983e+01	6.2945	3.737979	0.000188	1.883152	0.319015	0.000019
 635	6.3083e+01	6.3027	3.757531	0.000197	1.965028	0.332885	0.000020
 636	6.3182e+01	6.3141	3.773825	0.000164	1.637523	0.277404	0.000016
 637	6.3282e+01	6.3230	3.792155	0.000184	1.842214	0.312079	0.000018
 638	6.3382e+01	6.3331	3.815781	0.000237	2.374409	0.402236	0.000024
 639	6.3481e+01	6.3445	3.830853	0.000151	1.514709	0.256599	0.000015
 640	6.3581e+01	6.3546	3.854479	0.000237	2.374409	0.402236	0.000024
 641	6.3680e+01	6.3633	3.874846	0.000205	2.046904	0.346755	0.000020
 642	6.3779e+01	6.3725	3.894806	0.000201	2.005966	0.339820	0.000020
 643	6.3879e+01	6.3840	3.917617	0.000229	2.292533	0.388366	0.000023
 644	6.3978e+01	6.3941	3.941650	0.000242	2.415347	0.409171	0.000024
 645	6.4078e+01	6.3991	3.963647	0.000221	2.210656	0.374495	0.000022
 646	6.4177e+01	6.4130	3.988902	0.000254	2.538161	0.429976	0.000025
 647	6.4277e+01	6.4220	4.015379	0.000266	2.660975	0.450781	0.000027
 648	6.4376e+01	6.4318	4.041042	0.000258	2.579099	0.436911	0.000026
 649	6.4476e+01	6.4445	4.063446	0.000225	2.251595	0.381430	0.000023
 650	6.4576e+01	6.4552	4.086257	0.000229	2.292533	0.388366	0.000023
 651	6.4675e+01	6.4617	4.110697	0.000246	2.456285	0.416106	0.000025
 652	6.4775e+01	6.4727	4.129842	0.000192	1.924090	0.325950	0.000019
 653	6.4874e+01	6.4831	4.154283	0.000246	2.456285	0.416106	0.000025
 654	6.4974e+01	6.4930	4.178724	0.000246	2.456285	0.416106	0.000025
 655	6.5073e+01	6.5041	4.205201	0.000266	2.660975	0.450781	0.000027
 656	6.5172e+01	6.5133	4.227197	0.000221	2.210656	0.374495	0.000022
 657	6.5272e+01	6.5226	4.255711	0.000287	2.865666	0.485457	0.000029
 658	6.5371e+01	6.5326	4.280967	0.000254	2.538161	0.429976	0.000025
 659	6.5471e+01	6.5417	4.300926	0.000201	2.005966	0.339820	0.000020
 660	6.5570e+01	6.5535	4.324145	0.000233	2.333471	0.395301	0.000023
 661	6.5670e+01	6.5616	4.348178	0.000242	2.415347	0.409171	0.000024
 662	6.5769e+01	6.5753	4.373433	0.000254	2.538161	0.429976	0.000025
 663	6.5869e+01	6.5823	4.397059	0.000237	2.374409	0.402236	0.000024
 664	6.5969e+01	6.5963	4.419056	0.000221	2.210656	0.374495	0.000022
 665	6.6068e+01	6.6033	4.440645	0.000217	2.169718	0.367560	0.000022
 666	6.6168e+01	6.6094	4.465900	0.000254	2.538161	0.429976	0.000025
 667	6.6267e+01	6.6235	4.483416	0.000176	1.760338	0.298209	0.000018
 668	6.6367e+01	6.6335	4.507449	0.000242	2.415347	0.409171	0.000024
 669	6.6466e+01	6.6424	4.530260	0.000229	2.292533	0.388366	0.000023
 670	6.6566e+01	6.6521	4.546554	0.000164	1.637523	0.277404	0.000016
 671	6.6665e+01	6.6644	4.568143	0.000217	2.169718	0.367560	0.000022
 672	6.6764e+01	6.6744	4.593398	0.000254	2.538161	0.429976	0.000025
 673	6.6864e+01	6.6821	4.614580	0.000213	2.128780	0.360625	0.000021
 674	6.6963e+01	6.6928	4.636984	0.000225	2.251595	0.381430	0.000023
 675	6.7063e+01	6.7052	4.659795	0.000229	2.292533	0.388366	0.000023
 676	6.7162e+01	6.7121	4.682606	0.000229	2.292533	0.388366	0.000023
 677	6.7262e+01	6.7232	4.706640	0.000242	2.415347	0.409171	0.000024
 678	6.7362e+01	6.7334	4.724970	0.000184	1.842214	0.312079	0.000018
 679	6.7461e+01	6.7413	4.750225	0.000254	2.538161	0.429976	0.000025
 680	6.7561e+01	6.7507	4.770185	0.000201	2.005966	0.339820	0.000020
 681	6.7660e+01	6.7623	4.794626	0.000246	2.456285	0.416106	0.000025
 682	6.7760e+01	6.7702	4.817437	0.000229	2.292533	0.388366	0.000023
 683	6.7859e+01	6.7825	4.835360	0.000180	1.801276	0.305144	0.000018
 684	6.7959e+01	6.7924	4.858578	0.000233	2.333471	0.395301	0.000023
 685	6.8058e+01	6.8031	4.882204	0.000237	2.374409	0.402236	0.000024
 686	6.8157e+01	6.8124	4.899720	0.000176	1.760338	0.298209	0.000018
 687	6.8257e+01	6.8200	4.924975	0.000254	2.538161	0.429976	0.000025
 688	6.8356e+01	6.8315	4.946972	0.000221	2.210656	0.374495	0.000022
 689	6.8456e+01	6.8423	4.967339	0.000205	2.046904	0.346755	0.000020
 690	6.8555e+01	6.8511	4.990557	0.000233	2.333471	0.395301	0.000023
 691	6.8655e+01	6.8597	5.010110	0.000197	1.965028	0.332885	0.000020
 692	6.8754e+01	6.8713	5.033736	0.000237	2.374409	0.402236	0.000024
 693	6.8854e+01	6.8800	5.056139	0.000225	2.251595	0.381430	0.000023
 694	6.8954e+01	6.8911	5.076099	0.000201	2.005966	0.339820	0.000020
 695	6.9053e+01	6.9028	5.095244	0.000192	1.924090	0.325950	0.000019
 696	6.9153e+01	6.9092	5.115611	0.000205	2.046904	0.346755	0.000020
 697	6.9252e+01	6.9191	5.142089	0.000266	2.660975	0.450781	0.000027
 698	6.9352e+01	6.9323	5.158790	0.000168	1.678461	0.284339	0.000017
 699	6.9451e+01	6.9425	5.180379	0.000217	2.169718	0.367560	0.000022
 700	6.9550e+01	6.9505	5.199117	0.000188	1.883152	0.319015	0.000019
 701	6.9650e+01	6.9603	5.223557	0.000246	2.456285	0.416106	0.000025
 702	6.9749e+01	6.9698	5.241480	0.000180	1.801276	0.305144	0.000018
 703	6.9849e+01	6.9814	5.260218	0.000188	1.883152	0.319015	0.000019
 704	6.9948e+01	6.9897	5.282215	0.000221	2.210656	0.374495	0.000022
 705	7.0048e+01	7.0010	5.304211	0.000221	2.210656	0.374495	0.000022
 706	7.0147e+01	7.0086	5.329874	0.000258	2.579099	0.436911	0.000026
 707	7.0247e+01	7.0191	5.352685	0.000229	2.292533	0.388366	0.000023
 708	7.0347e+01	7.0292	5.374274	0.000217	2.169718	0.367560	0.000022
 709	7.0446e+01	7.0394	5.399122	0.000250	2.497223	0.423041	0.000025
 710	7.0546e+01	7.0528	5.419082	0.000201	2.005966	0.339820	0.000020
 711	7.0645e+01	7.0611	5.442300	0.000233	2.333471	0.395301	0.000023
 712	7.0745e+01	7.0705	5.466333	0.000242	2.415347	0.409171	0.000024
 713	7.0844e+01	7.0813	5.492403	0.000262	2.620037	0.443846	0.000026
 714	7.0944e+01	7.0899	5.511956	0.000197	1.965028	0.332885	0.000020
 715	7.1043e+01	7.0980	5.533138	0.000213	2.128780	0.360625	0.000021
 716	7.1142e+01	7.1103	5.553097	0.000201	2.005966	0.339820	0.000020
 717	7.1242e+01	7.1181	5.577538	0.000246	2.456285	0.416106	0.000025
 718	7.1341e+01	7.1278	5.599942	0.000225	2.251595	0.381430	0.000023
 719	7.1441e+01	7.1375	5.626012	0.000262	2.620037	0.443846	0.000026
 720	7.1540e+01	7.1517	5.649230	0.000233	2.333471	0.395301	0.000023
 721	7.1640e+01	7.1614	5.672449	0.000233	2.333471	0.395301	0.000023
 722	7.1740e+01	7.1697	5.694038	0.000217	2.169718	0.367560	0.000022
 723	7.1839e+01	7.1797	5.718478	0.000246	2.456285	0.416106	0.000025
 724	7.1939e+01	7.1896	5.738438	0.000201	2.005966	0.339820	0.000020
 725	7.2038e+01	7.1978	5.761249	0.000229	2.292533	0.388366	0.000023
 726	7.2138e+01	7.2099	5.782839	0.000217	2.169718	0.367560	0.000022
 727	7.2237e+01	7.2204	5.804428	0.000217	2.169718	0.367560	0.000022
 728	7.2337e+01	7.2288	5.818685	0.000143	1.432833	0.242728	0.000014
 729	7.2436e+01	7.2400	5.842311	0.000237	2.374409	0.402236	0.000024
 730	7.2535e+01	7.2488	5.854938	0.000127	1.269081	0.214988	0.000013
 731	7.2635e+01	7.2588	5.873676	0.000188	1.883152	0.319015	0.000019
 732	7.2734e+01	7.2705	5.893636	0.000201	2.005966	0.339820	0.000020
 733	7.2834e+01	7.2813	5.912781	0.000192	1.924090	0.325950	0.000019
 734	7.2933e+01	7.2884	5.932333	0.000197	1.965028	0.332885	0.000020
 735	7.3033e+01	7.3022	5.950664	0.000184	1.842214	0.312079	0.000018
 736	7.3132e+01	7.3090	5.969401	0.000188	1.883152	0.319015	0.000019
 737	7.3232e+01	7.3190	5.985288	0.000160	1.596585	0.270469	0.000016
 738	7.3332e+01	7.3267	6.004433	0.000192	1.924090	0.325950	0.000019
 739	7.3431e+01	7.3377	6.023171	0.000188	1.883152	0.319015	0.000019
 740	7.3531e+01	7.3483	6.038650	0.000156	1.555647	0.263534	0.000016
 741	7.3630e+01	7.3592	6.055758	0.000172	1.719399	0.291274	0.000017
 742	7.3730e+01	7.3661	6.076533	0.000209	2.087842	0.353690	0.000021
 743	7.3829e+01	7.3780	6.094456	0.000180	1.801276	0.305144	0.000018
 744	7.3928e+01	7.3895	6.110749	0.000164	1.637523	0.277404	0.000016
 745	7.4028e+01	7.4010	6.131931	0.000213	2.128780	0.360625	0.000021
 746	7.4127e+01	7.4059	6.149447	0.000176	1.760338	0.298209	0.000018
 747	7.4227e+01	7.4199	6.169407	0.000201	2.005966	0.339820	0.000020
 748	7.4326e+01	7.4285	6.188959	0.000197	1.965028	0.332885	0.000020
 749	7.4426e+01	7.4385	6.209734	0.000209	2.087842	0.353690	0.000021
 750	7.4525e+01	7.4477	6.229693	0.000201	2.005966	0.339820	0.000020
 751	7.4625e+01	7.4573	6.247209	0.000176	1.760338	0.298209	0.000018
 752	7.4725e+01	7.4688	6.266354	0.000192	1.924090	0.325950	0.000019
 753	7.4824e+01	7.4789	6.287536	0.000213	2.128780	0.360625	0.000021
 754	7.4924e+01	7.4868	6.308310	0.000209	2.087842	0.353690	0.000021
 755	7.5023e+01	7.4962	6.329900	0.000217	2.169718	0.367560	0.000022
 756	7.5123e+01	7.5076	6.350674	0.000209	2.087842	0.353690	0.000021
 757	7.5222e+01	7.5175	6.369412	0.000188	1.883152	0.319015	0.000019
 758	7.5322e+01	7.5288	6.390594	0.000213	2.128780	0.360625	0.000021
 759	7.5421e+01	7.5384	6.409739	0.000192	1.924090	0.325950	0.000019
 760	7.5520e+01	7.5467	6.430513	0.000209	2.087842	0.353690	0.000021
 761	7.5620e+01	7.5546	6.448029	0.000176	1.760338	0.298209	0.000018
 762	7.5719e+01	7.5660	6.467581	0.000197	1.965028	0.332885	0.000020
 763	7.5819e+01	7.5785	6.486319	0.000188	1.883152	0.319015	0.000019
 764	7.5918e+01	7.5882	6.507908	0.000217	2.169718	0.367560	0.000022
 765	7.6018e+01	7.5966	6.528275	0.000205	2.046904	0.346755	0.000020
 766	7.6118e+01	7.6087	6.548235	0.000201	2.005966	0.339820	0.000020
 767	7.6217e+01	7.6158	6.569824	0.000217	2.169718	0.367560	0.000022
 768	7.6317e+01	7.6295	6.588969	0.000192	1.924090	0.325950	0.000019
 769	7.6416e+01	7.6357	6.608115	0.000192	1.924090	0.325950	0.000019
 770	7.6516e+01	7.6470	6.626852	0.000188	1.883152	0.319015	0.000019
 771	7.6615e+01	7.6539	6.645590	0.000188	1.883152	0.319015	0.000019
 772	7.6715e+01	7.6668	6.666365	0.000209	2.087842	0.353690	0.000021
 773	7.6814e+01	7.6752	6.687546	0.000213	2.128780	0.360625	0.000021
 774	7.6913e+01	7.6834	6.707506	0.000201	2.005966	0.339820	0.000020
 775	7.7013e+01	7.6968	6.728281	0.000209	2.087842	0.353690	0.000021
 776	7.7112e+01	7.7080	6.744574	0.000164	1.637523	0.277404	0.000016
 777	7.7212e+01	7.7149	6.768608	0.000242	2.415347	0.409171	0.000024
 778	7.7311e+01	7.7255	6.784901	0.000164	1.637523	0.277404	0.000016
 779	7.7411e+01	7.7369	6.807712	0.000229	2.292533	0.388366	0.000023
 780	7.7510e+01	7.7451	6.828080	0.000205	2.046904	0.346755	0.000020
 781	7.7610e+01	7.7549	6.852520	0.000246	2.456285	0.416106	0.000025
 782	7.7710e+01	7.7654	6.869628	0.000172	1.719399	0.291274	0.000017
 783	7.7809e+01	7.7766	6.892440	0.000229	2.292533	0.388366	0.000023
 784	7.7909e+01	7.7882	6.910770	0.000184	1.842214	0.312079	0.000018
 785	7.8008e+01	7.7959	6.931952	0.000213	2.128780	0.360625	0.000021
 786	7.8108e+01	7.8055	6.952319	0.000205	2.046904	0.346755	0.000020
 787	7.8207e+01	7.8159	6.974315	0.000221	2.210656	0.374495	0.000022
 788	7.8306e+01	7.8265	6.993461	0.000192	1.924090	0.325950	0.000019
 789	7.8406e+01	7.8345	7.014642	0.000213	2.128780	0.360625	0.000021
 790	7.8505e+01	7.8468	7.030121	0.000156	1.555647	0.263534	0.000016
 791	7.8605e+01	7.8536	7.051303	0.000213	2.128780	0.360625	0.000021
 792	7.8704e+01	7.8666	7.069634	0.000184	1.842214	0.312079	0.000018
 793	7.8804e+01	7.8764	7.091630	0.000221	2.210656	0.374495	0.000022
 794	7.8903e+01	7.8880	7.107924	0.000164	1.637523	0.277404	0.000016
 795	7.9003e+01	7.8945	7.126662	0.000188	1.883152	0.319015	0.000019
 796	7.9103e+01	7.9047	7.145399	0.000188	1.883152	0.319015	0.000019
 797	7.9202e+01	7.9154	7.162508	0.000172	1.719399	0.291274	0.000017
 798	7.9302e+01	7.9230	7.184097	0.000217	2.169718	0.367560	0.000022
 799	7.9401e+01	7.9356	7.202020	0.000180	1.801276	0.305144	0.000018
 800	7.9501e+01	7.9458	7.217499	0.000156	1.555647	0.263534	0.000016
 801	7.9600e+01	7.9549	7.239088	0.000217	2.169718	0.367560	0.000022
 802	7.9700e+01	7.9658	7.259048	0.000201	2.005966	0.339820	0.000020
 803	7.9799e+01	7.9756	7.272490	0.000135	1.350957	0.228858	0.000014
 804	7.9898e+01	7.9835	7.290006	0.000176	1.760338	0.298209	0.000018
 805	7.9998e+01	7.9932	7.313632	0.000237	2.374409	0.402236	0.000024
 806	8.0097e+01	8.0063	7.328296	0.000147	1.473771	0.249664	0.000015
 807	8.0197e+01	8.0148	7.347034	0.000188	1.883152	0.319015	0.000019
 808	8.0296e+01	8.0246	7.366994	0.000201	2.005966	0.339820	0.000020
 809	8.0396e+01	8.0371	7.387361	0.000205	2.046904	0.346755	0.000020
 810	8.0496e+01	8.0456	7.408543	0.000213	2.128780	0.360625	0.000021
 811	8.0595e+01	8.0560	7.426058	0.000176	1.760338	0.298209	0.000018
 812	8.0695e+01	8.0651	7.454572	0.000287	2.865666	0.485457	0.000029
 813	8.0794e+01	8.0742	7.477791	0.000233	2.333471	0.395301	0.000023
 814	8.0894e+01	8.0850	7.494085	0.000164	1.637523	0.277404	0.000016
 815	8.0993e+01	8.0944	7.522599	0.000287	2.865666	0.485457	0.000029
 816	8.1093e+01	8.1038	7.545410	0.000229	2.292533	0.388366	0.000023
 817	8.1192e+01	8.1158	7.566592	0.000213	2.128780	0.360625	0.000021
 818	8.1291e+01	8.1243	7.589810	0.000233	2.333471	0.395301	0.000023
 819	8.1391e+01	8.1357	7.608141	0.000184	1.842214	0.312079	0.000018
 820	8.1490e+01	8.1434	7.630544	0.000225	2.251595	0.381430	0.000023
 821	8.1590e+01	8.1564	7.657836	0.000274	2.742852	0.464652	0.000027
 822	8.1689e+01	8.1621	7.679833	0.000221	2.210656	0.374495	0.000022
 823	8.1789e+01	8.1749	7.699793	0.000201	2.005966	0.339820	0.000020
 824	8.1888e+01	8.1857	7.726677	0.000270	2.701913	0.457717	0.000027
 825	8.1988e+01	8.1944	7.744193	0.000176	1.760338	0.298209	0.000018
 826	8.2088e+01	8.2052	7.772300	0.000282	2.824728	0.478522	0.000028
 827	8.2187e+01	8.2163	7.790630	0.000184	1.842214	0.312079	0.000018
 828	8.2287e+01	8.2258	7.814663	0.000242	2.415347	0.409171	0.000024
 829	8.2386e+01	8.2317	7.838696	0.000242	2.415347	0.409171	0.000024
 830	8.2486e+01	8.2433	7.861100	0.000225	2.251595	0.381430	0.000023
 831	8.2585e+01	8.2527	7.882282	0.000213	2.128780	0.360625	0.000021
 832	8.2684e+01	8.2642	7.901020	0.000188	1.883152	0.319015	0.000019
 833	8.2784e+01	8.2726	7.920980	0.000201	2.005966	0.339820	0.000020
 834	8.2883e+01	8.2862	7.944605	0.000237	2.374409	0.402236	0.000024
 835	8.2983e+01	8.2946	7.965380	0.000209	2.087842	0.353690	0.000021
 836	8.3082e+01	8.3013	7.985747	0.000205	2.046904	0.346755	0.000020
 837	8.3182e+01	8.3111	8.006522	0.000209	2.087842	0.353690	0.000021
 838	8.3281e+01	8.3228	8.027703	0.000213	2.128780	0.360625	0.000021
 839	8.3381e+01	8.3366	8.045219	0.000176	1.760338	0.298209	0.000018
 840	8.3481e+01	8.3436	8.068845	0.000237	2.374409	0.402236	0.000024
 841	8.3580e+01	8.3558	8.091656	0.000229	2.292533	0.388366	0.000023
 842	8.3680e+01	8.3618	8.111616	0.000201	2.005966	0.339820	0.000020
 843	8.3779e+01	8.3749	8.129539	0.000180	1.801276	0.305144	0.000018
 844	8.3879e+01	8.3846	8.150721	0.000213	2.128780	0.360625	0.000021
 845	8.3978e+01	8.3924	8.174754	0.000242	2.415347	0.409171	0.000024
 846	8.4078e+01	8.4067	8.191048	0.000164	1.637523	0.277404	0.000016
 847	8.4177e+01	8.4135	8.215081	0.000242	2.415347	0.409171	0.000024
 848	8.4276e+01	8.4215	8.238707	0.000237	2.374409	0.402236	0.000024
 849	8.4376e+01	8.4335	8.258259	0.000197	1.965028	0.332885	0.000020
 850	8.4475e+01	8.4460	8.283514	0.000254	2.538161	0.429976	0.000025
 851	8.4575e+01	8.4541	8.296957	0.000135	1.350957	0.228858	0.000014
 852	8.4674e+01	8.4645	8.319361	0.000225	2.251595	0.381430	0.000023
 853	8.4774e+01	8.4717	8.340950	0.000217	2.169718	0.367560	0.000022
 854	8.4874e+01	8.4848	8.361724	0.000209	2.087842	0.353690	0.000021
 855	8.4973e+01	8.4925	8.384128	0.000225	2.251595	0.381430	0.000023
 856	8.5073e+01	8.5030	8.400422	0.000164	1.637523	0.277404	0.000016
 857	8.5172e+01	8.5117	8.422011	0.000217	2.169718	0.367560	0.000022
 858	8.5272e+01	8.5254	8.439527	0.000176	1.760338	0.298209	0.000018
 859	8.5371e+01	8.5339	8.463153	0.000237	2.374409	0.402236	0.000024
 860	8.5471e+01	8.5437	8.482705	0.000197	1.965028	0.332885	0.000020
 861	8.5570e+01	8.5513	8.504701	0.000221	2.210656	0.374495	0.000022
 862	8.5669e+01	8.5636	8.527105	0.000225	2.251595	0.381430	0.000023
 863	8.5769e+01	8.5711	8.546250	0.000192	1.924090	0.325950	0.000019
 864	8.5868e+01	8.5825	8.563359	0.000172	1.719399	0.291274	0.000017
 865	8.5968e+01	8.5919	8.584948	0.000217	2.169718	0.367560	0.000022
 866	8.6067e+01	8.6011	8.603278	0.000184	1.842214	0.312079	0.000018
 867	8.6167e+01	8.6124	8.621609	0.000184	1.842214	0.312079	0.000018
 868	8.6266e+01	8.6243	8.639125	0.000176	1.760338	0.298209	0.000018
 869	8.6366e+01	8.6304	8.660714	0.000217	2.169718	0.367560	0.000022
 870	8.6466e+01	8.6426	8.680673	0.000201	2.005966	0.339820	0.000020
 871	8.6565e+01	8.6512	8.701855	0.000213	2.128780	0.360625	0.000021
 872	8.6665e+01	8.6611	8.725074	0.000233	2.333471	0.395301	0.000023
 873	8.6764e+01	8.6723	8.740553	0.000156	1.555647	0.263534	0.000016
 874	8.6864e+01	8.6825	8.767030	0.000266	2.660975	0.450781	0.000027
 875	8.6963e+01	8.6914	8.788212	0.000213	2.128780	0.360625	0.000021
 876	8.7063e+01	8.7006	8.808986	0.000209	2.087842	0.353690	0.000021
 877	8.7162e+01	8.7100	8.829761	0.000209	2.087842	0.353690	0.000021
 878	8.7261e+01	8.7201	8.853387	0.000237	2.374409	0.402236	0.000024
 879	8.7361e+01	8.7308	8.871310	0.000180	1.801276	0.305144	0.000018
 880	8.7460e+01	8.7392	8.895343	0.000242	2.415347	0.409171	0.000024
 881	8.7560e+01	8.7518	8.917747	0.000225	2.251595	0.381430	0.000023
 882	8.7659e+01	8.7649	8.938521	0.000209	2.087842	0.353690	0.000021
 883	8.7759e+01	8.7716	8.955222	0.000168	1.678461	0.284339	0.000017
 884	8.7859e+01	8.7793	8.976404	0.000213	2.128780	0.360625	0.000021
 885	8.7958e+01	8.7915	9.000845	0.000246	2.456285	0.416106	0.000025
 886	8.8058e+01	8.8001	9.022434	0.000217	2.169718	0.367560	0.000022
 887	8.8157e+01	8.8136	9.049318	0.000270	2.701913	0.457717	0.000027
 888	8.8257e+01	8.8211	9.068871	0.000197	1.965028	0.332885	0.000020
 889	8.8356e+01	8.8309	9.087609	0.000188	1.883152	0.319015	0.000019
 890	8.8456e+01	8.8394	9.112864	0.000254	2.538161	0.429976	0.000025
 891	8.8555e+01	8.8509	9.132009	0.000192	1.924090	0.325950	0.000019
 892	8.8654e+01	8.8599	9.153598	0.000217	2.169718	0.367560	0.000022
 893	8.8754e+01	8.8696	9.173965	0.000205	2.046904	0.346755	0.000020
 894	8.8853e+01	8.8805	9.191888	0.000180	1.801276	0.305144	0.000018
 895	8.8953e+01	8.8892	9.210219	0.000184	1.842214	0.312079	0.000018
 896	8.9052e+01	8.8983	9.230179	0.000201	2.005966	0.339820	0.000020
 897	8.9152e+01	8.9117	9.245250	0.000151	1.514709	0.256599	0.000015
 898	8.9251e+01	8.9197	9.262359	0.000172	1.719399	0.291274	0.000017
 899	8.9351e+01	8.9315	9.282726	0.000205	2.046904	0.346755	0.000020
 900	8.9451e+01	8.9421	9.297797	0.000151	1.514709	0.256599	0.000015
 901	8.9550e+01	8.9521	9.316128	0.000184	1.842214	0.312079	0.000018
 902	8.9650e+01	8.9606	9.335273	0.000192	1.924090	0.325950	0.000019
 903	8.9749e+01	8.9686	9.347493	0.000123	1.228142	0.208053	0.000012
 904	8.9849e+01	8.9787	9.367046	0.000197	1.965028	0.332885	0.000020
 905	8.9948e+01	8.9906	9.385376	0.000184	1.842214	0.312079	0.000018
 906	9.0047e+01	8.9959	9.402077	0.000168	1.678461	0.284339	0.000017
 907	9.0147e+01	9.0115	9.418371	0.000164	1.637523	0.277404	0.000016
 908	9.0246e+01	9.0168	9.436294	0.000180	1.801276	0.305144	0.000018
 909	9.0346e+01	9.0299	9.452180	0.000160	1.596585	0.270469	0.000016
 910	9.0445e+01	9.0400	9.470918	0.000188	1.883152	0.319015	0.000019
 911	9.0545e+01	9.0488	9.485175	0.000143	1.432833	0.242728	0.000014
 912	9.0644e+01	9.0595	9.506357	0.000213	2.128780	0.360625	0.000021
 913	9.0744e+01	9.0693	9.523873	0.000176	1.760338	0.298209	0.000018
 914	9.0844e+01	9.0797	9.538944	0.000151	1.514709	0.256599	0.000015
 915	9.0943e+01	9.0910	9.555238	0.000164	1.637523	0.277404	0.000016
 916	9.1043e+01	9.0992	9.579678	0.000246	2.456285	0.416106	0.000025
 917	9.1142e+01	9.1107	9.593935	0.000143	1.432833	0.242728	0.000014
 918	9.1242e+01	9.1163	9.613895	0.000201	2.005966	0.339820	0.000020
 919	9.1341e+01	9.1288	9.636706	0.000229	2.292533	0.388366	0.000023
 920	9.1441e+01	9.1397	9.651371	0.000147	1.473771	0.249664	0.000015
 921	9.1540e+01	9.1488	9.671331	0.000201	2.005966	0.339820	0.000020
 922	9.1639e+01	9.1608	9.688439	0.000172	1.719399	0.291274	0.000017
 923	9.1739e+01	9.1682	9.705547	0.000172	1.719399	0.291274	0.000017
 924	9.1838e+01	9.1810	9.728358	0.000229	2.292533	0.388366	0.000023
 925	9.1938e+01	9.1875	9.747911	0.000197	1.965028	0.332885	0.000020
 926	9.2037e+01	9.1992	9.767463	0.000197	1.965028	0.332885	0.000020
 927	9.2137e+01	9.2091	9.785794	0.000184	1.842214	0.312079	0.000018
 928	9.2237e+01	9.2175	9.803717	0.000180	1.801276	0.305144	0.000018
 929	9.2336e+01	9.2285	9.820418	0.000168	1.678461	0.284339	0.000017
 930	9.2436e+01	9.2387	9.839970	0.000197	1.965028	0.332885	0.000020
 931	9.2535e+01	9.2501	9.858301	0.000184	1.842214	0.312079	0.000018
 932	9.2635e+01	9.2575	9.878668	0.000205	2.046904	0.346755	0.000020
 933	9.2734e+01	9.2670	9.896591	0.000180	1.801276	0.305144	0.000018
 934	9.2834e+01	9.2840	9.913699	0.000172	1.719399	0.291274	0.000017
 935	9.2933e+01	9.2864	9.934066	0.000205	2.046904	0.346755	0.000020
 936	9.3032e+01	9.2979	9.953619	0.000197	1.965028	0.332885	0.000020
 937	9.3132e+01	9.3091	9.973171	0.000197	1.965028	0.332885	0.000020
 938	9.3231e+01	9.3171	9.990687	0.000176	1.760338	0.298209	0.000018
 939	9.3331e+01	9.3262	10.013091	0.000225	2.251595	0.381430	0.000023
 940	9.3430e+01	9.3375	10.031421	0.000184	1.842214	0.312079	0.000018
 941	9.3530e+01	9.3475	10.050159	0.000188	1.883152	0.319015	0.000019
 942	9.3629e+01	9.3570	10.068490	0.000184	1.842214	0.312079	0.000018
 943	9.3729e+01	9.3691	10.083154	0.000147	1.473771	0.249664	0.000015
 944	9.3829e+01	9.3782	10.105150	0.000221	2.210656	0.374495	0.000022
 945	9.3928e+01	9.3848	10.121444	0.000164	1.637523	0.277404	0.000016
 946	9.4028e+01	9.4012	10.141811	0.000205	2.046904	0.346755	0.000020
 947	9.4127e+01	9.4068	10.162178	0.000205	2.046904	0.346755	0.000020
 948	9.4227e+01	9.4172	10.185397	0.000233	2.333471	0.395301	0.000023
 949	9.4326e+01	9.4308	10.203727	0.000184	1.842214	0.312079	0.000018
 950	9.4425e+01	9.4361	10.226131	0.000225	2.251595	0.381430	0.000023
 951	9.4525e+01	9.4465	10.245684	0.000197	1.965028	0.332885	0.000020
 952	9.4624e+01	9.4582	10.264014	0.000184	1.842214	0.312079	0.000018
 953	9.4724e+01	9.4646	10.281122	0.000172	1.719399	0.291274	0.000017
 954	9.4823e+01	9.4749	10.301897	0.000209	2.087842	0.353690	0.000021
 955	9.4923e+01	9.4867	10.321857	0.000201	2.005966	0.339820	0.000020
 956	9.5022e+01	9.4965	10.340187	0.000184	1.842214	0.312079	0.000018
 957	9.5122e+01	9.5056	10.359739	0.000197	1.965028	0.332885	0.000020
 958	9.5222e+01	9.5168	10.376033	0.000164	1.637523	0.277404	0.000016
 959	9.5321e+01	9.5271	10.393142	0.000172	1.719399	0.291274	0.000017
 960	9.5421e+01	9.5367	10.411472	0.000184	1.842214	0.312079	0.000018
 961	9.5520e+01	9.5461	10.427358	0.000160	1.596585	0.270469	0.000016
 962	9.5620e+01	9.5578	10.445281	0.000180	1.801276	0.305144	0.000018
 963	9.5719e+01	9.5636	10.461575	0.000164	1.637523	0.277404	0.000016
 964	9.5819e+01	9.5777	10.478683	0.000172	1.719399	0.291274	0.000017
 965	9.5918e+01	9.5884	10.499458	0.000209	2.087842	0.353690	0.000021
 966	9.6017e+01	9.5953	10.514937	0.000156	1.555647	0.263534	0.000016
 967	9.6117e+01	9.6098	10.534489	0.000197	1.965028	0.332885	0.000020
 968	9.6216e+01	9.6162	10.554042	0.000197	1.965028	0.332885	0.000020
 969	9.6316e+01	9.6255	10.570336	0.000164	1.637523	0.277404	0.000016
 970	9.6415e+01	9.6344	10.589888	0.000197	1.965028	0.332885	0.000020
 971	9.6515e+01	9.6473	10.604145	0.000143	1.432833	0.242728	0.000014
 972	9.6615e+01	9.6555	10.623290	0.000192	1.924090	0.325950	0.000019
 973	9.6714e+01	9.6650	10.639176	0.000160	1.596585	0.270469	0.000016
 974	9.6814e+01	9.6760	10.655877	0.000168	1.678461	0.284339	0.000017
 975	9.6913e+01	9.6851	10.675023	0.000192	1.924090	0.325950	0.000019
 976	9.7013e+01	9.6967	10.690909	0.000160	1.596585	0.270469	0.000016
 977	9.7112e+01	9.7046	10.712091	0.000213	2.128780	0.360625	0.000021
 978	9.7212e+01	9.7150	10.732458	0.000205	2.046904	0.346755	0.000020
 979	9.7311e+01	9.7266	10.754862	0.000225	2.251595	0.381430	0.000023
 980	9.7410e+01	9.7363	10.776858	0.000221	2.210656	0.374495	0.000022
 981	9.7510e+01	9.7437	10.794374	0.000176	1.760338	0.298209	0.000018
 982	9.7609e+01	9.7559	10.822073	0.000278	2.783790	0.471587	0.000028
 983	9.7709e+01	9.7663	10.841218	0.000192	1.924090	0.325950	0.000019
 984	9.7808e+01	9.7770	10.864030	0.000229	2.292533	0.388366	0.000023
 985	9.7908e+01	9.7852	10.883989	0.000201	2.005966	0.339820	0.000020
 986	9.8007e+01	9.7980	10.906800	0.000229	2.292533	0.388366	0.000023
 987	9.8107e+01	9.8074	10.930834	0.000242	2.415347	0.409171	0.000024
 988	9.8207e+01	9.8169	10.949571	0.000188	1.883152	0.319015	0.000019
 989	9.8306e+01	9.8244	10.970346	0.000209	2.087842	0.353690	0.000021
 990	9.8406e+01	9.8342	10.992342	0.000221	2.210656	0.374495	0.000022
 991	9.8505e+01	9.8474	11.012710	0.000205	2.046904	0.346755	0.000020
 992	9.8605e+01	9.8547	11.035113	0.000225	2.251595	0.381430	0.000023
 993	9.8704e+01	9.8682	11.058739	0.000237	2.374409	0.402236	0.000024
 994	9.8803e+01	9.8737	11.080736	0.000221	2.210656	0.374495	0.000022
 995	9.8903e+01	9.8849	11.103140	0.000225	2.251595	0.381430	0.000023
 996	9.9002e+01	9.8951	11.123507	0.000205	2.046904	0.346755	0.000020
 997	9.9102e+01	9.9048	11.146725	0.000233	2.333471	0.395301	0.000023
 998	9.9201e+01	9.9146	11.165870	0.000192	1.924090	0.325950	0.000019
 999	9.9301e+01	9.9253	11.188682	0.000229	2.292533	0.388366	0.000023
1000	9.9400e+01	9.9342	11.206605	0.000180	1.801276	0.305144	0.000018
1001	9.9500e+01	9.9414	11.227786	0.000213	2.128780	0.360625	0.000021
1002	9.9600e+01	9.9561	11.249376	0.000217	2.169718	0.367560	0.000022
1003	9.9699e+01	9.9635	11.269335	0.000201	2.005966	0.339820	0.000020
1004	9.9799e+01	9.9731	11.287666	0.000184	1.842214	0.312079	0.000018
1005	9.9898e+01	9.9832	11.305589	0.000180	1.801276	0.305144	0.000018
1006	9.9998e+01	9.9951	11.325549	0.000201	2.005966	0.339820	0.000020
1007	1.0010e+02	9.9866	11.318216	0.000074	0.736885	0.124832	-0.000007
1008	1.0020e+02	9.9749	11.306404	0.000119	1.187204	0.201118	-0.000012
1009	1.0030e+02	9.9636	11.295813	0.000106	1.064390	0.180313	-0.000011
1010	1.0040e+02	9.9538	11.279926	0.000160	1.596585	0.270469	-0.000016
1011	1.0050e+02	9.9457	11.269335	0.000106	1.064390	0.180313	-0.000011
1012	1.0059e+02	9.9348	11.260374	0.000090	0.900638	0.152572	-0.000009
1013	1.0069e+02	9.9249	11.244080	0.000164	1.637523	0.277404	-0.000016
1014	1.0079e+02	9.9128	11.233082	0.000111	1.105328	0.187248	-0.000011
1015	1.0089e+02	9.9048	11.219232	0.000139	1.391895	0.235793	-0.000014
1016	1.0099e+02	9.8960	11.211900	0.000074	0.736885	0.124832	-0.000007
1017	1.0109e+02	9.8857	11.193977	0.000180	1.801276	0.305144	-0.000018
1018	1.0119e+02	9.8761	11.183793	0.000102	1.023452	0.173377	-0.000010
1019	1.0129e+02	9.8638	11.167500	0.000164	1.637523	0.277404	-0.000016
1020	1.0139e+02	9.8529	11.154465	0.000131	1.310019	0.221923	-0.000013
1021	1.0149e+02	9.8463	11.141022	0.000135	1.350957	0.228858	-0.000014
1022	1.0159e+02	9.8352	11.127987	0.000131	1.310019	0.221923	-0.000013
1023	1.0169e+02	9.8260	11.114138	0.000139	1.391895	0.235793	-0.000014
1024	1.0179e+02	9.8158	11.101510	0.000127	1.269081	0.214988	-0.000013
1025	1.0189e+02	9.8047	11.083180	0.000184	1.842214	0.312079	-0.000018
1026	1.0199e+02	9.7944	11.075440	0.000078	0.777824	0.131767	-0.000008
1027	1.0209e+02	9.7900	11.058739	0.000168	1.678461	0.284339	-0.000017
1028	1.0219e+02	9.7766	11.048148	0.000106	1.064390	0.180313	-0.000011
1029	1.0229e+02	9.7650	11.033891	0.000143	1.432833	0.242728	-0.000014
1030	1.0239e+02	9.7565	11.018005	0.000160	1.596585	0.270469	-0.000016
1031	1.0248e+02	9.7468	11.005785	0.000123	1.228142	0.208053	-0.000012
1032	1.0258e+02	9.7352	10.991528	0.000143	1.432833	0.242728	-0.000014
1033	1.0268e+02	9.7256	10.977271	0.000143	1.432833	0.242728	-0.000014
1034	1.0278e+02	9.7144	10.959348	0.000180	1.801276	0.305144	-0.000018
1035	1.0288e+02	9.7056	10.943461	0.000160	1.596585	0.270469	-0.000016
1036	1.0298e+02	9.6951	10.927982	0.000156	1.555647	0.263534	-0.000016
1037	1.0308e+02	9.6848	10.910874	0.000172	1.719399	0.291274	-0.000017
1038	1.0318e+02	9.6768	10.898246	0.000127	1.269081	0.214988	-0.000013
1039	1.0328e+02	9.6645	10.883582	0.000147	1.473771	0.249664	-0.000015
1040	1.0338e+02	9.6564	10.868918	0.000147	1.473771	0.249664	-0.000015
1041	1.0348e+02	9.6456	10.853439	0.000156	1.555647	0.263534	-0.000016
1042	1.0358e+02	9.6372	10.841218	0.000123	1.228142	0.208053	-0.000012
1043	1.0368e+02	9.6289	10.832664	0.000086	0.859700	0.145637	-0.000009
1044	1.0378e+02	9.6151	10.815963	0.000168	1.678461	0.284339	-0.000017
1045	1.0388e+02	9.6066	10.804965	0.000111	1.105328	0.187248	-0.000011
1046	1.0398e+02	9.5948	10.790708	0.000143	1.432833	0.242728	-0.000014
1047	1.0408e+02	9.5875	10.776451	0.000143	1.432833	0.242728	-0.000014
1048	1.0418e+02	9.5764	10.762194	0.000143	1.432833	0.242728	-0.000014
1049	1.0428e+02	9.5655	10.750381	0.000119	1.187204	0.201118	-0.000012
1050	1.0438e+02	9.5570	10.735309	0.000151	1.514709	0.256599	-0.000015
1051	1.0447e+02	9.5465	10.720238	0.000151	1.514709	0.256599	-0.000015
1052	1.0457e+02	9.5373	10.705573	0.000147	1.473771	0.249664	-0.000015
1053	1.0467e+02	9.5252	10.695390	0.000102	1.023452	0.173377	-0.000010
1054	1.0477e+02	9.5179	10.683169	0.000123	1.228142	0.208053	-0.000012
1055	1.0487e+02	9.5081	10.668505	0.000147	1.473771	0.249664	-0.000015
1056	1.0497e+02	9.4960	10.654655	0.000139	1.391895	0.235793	-0.000014
1057	1.0507e+02	9.4853	10.641213	0.000135	1.350957	0.228858	-0.000014
1058	1.0517e+02	9.4757	10.629808	0.000115	1.146266	0.194183	-0.000011
1059	1.0527e+02	9.4678	10.613107	0.000168	1.678461	0.284339	-0.000017
1060	1.0537e+02	9.4574	10.601701	0.000115	1.146266	0.194183	-0.000011
1061	1.0547e+02	9.4492	10.581334	0.000205	2.046904	0.346755	-0.000020
1062	1.0557e+02	9.4394	10.568299	0.000131	1.310019	0.221923	-0.000013
1063	1.0567e+02	9.4278	10.547932	0.000205	2.046904	0.346755	-0.000020
1064	1.0577e+02	9.4192	10.528787	0.000192	1.924090	0.325950	-0.000019
1065	1.0587e+02	9.4067	10.514122	0.000147	1.473771	0.249664	-0.000015
1066	1.0597e+02	9.3975	10.496607	0.000176	1.760338	0.298209	-0.000018
1067	1.0607e+02	9.3858	10.478683	0.000180	1.801276	0.305144	-0.000018
1068	1.0617e+02	9.3781	10.461168	0.000176	1.760338	0.298209	-0.000018
1069	1.0627e+02	9.3677	10.444467	0.000168	1.678461	0.284339	-0.000017
1070	1.0637e+02	9.3580	10.423692	0.000209	2.087842	0.353690	-0.000021
1071	1.0647e+02	9.3475	10.405362	0.000184	1.842214	0.312079	-0.000018
1072	1.0656e+02	9.3384	10.389068	0.000164	1.637523	0.277404	-0.000016
1073	1.0666e+02	9.3255	10.373182	0.000160	1.596585	0.270469	-0.000016
1074	1.0676e+02	9.3195	10.347927	0.000254	2.538161	0.429976	-0.000025
1075	1.0686e+02	9.3067	10.332040	0.000160	1.596585	0.270469	-0.000016
1076	1.0696e+02	9.3018	10.313302	0.000188	1.883152	0.319015	-0.000019
1077	1.0706e+02	9.2889	10.294972	0.000184	1.842214	0.312079	-0.000018
1078	1.0716e+02	9.2767	10.277049	0.000180	1.801276	0.305144	-0.000018
1079	1.0726e+02	9.2676	10.258311	0.000188	1.883152	0.319015	-0.000019
1080	1.0736e+02	9.2590	10.239573	0.000188	1.883152	0.319015	-0.000019
1081	1.0746e+02	9.2475	10.220021	0.000197	1.965028	0.332885	-0.000020
1082	1.0756e+02	9.2408	10.206171	0.000139	1.391895	0.235793	-0.000014
1083	1.0766e+02	9.2261	10.188656	0.000176	1.760338	0.298209	-0.000018
1084	1.0776e+02	9.2188	10.167881	0.000209	2.087842	0.353690	-0.000021
1085	1.0786e+02	9.2080	10.154846	0.000131	1.310019	0.221923	-0.000013
1086	1.0796e+02	9.1970	10.137330	0.000176	1.760338	0.298209	-0.000018
1087	1.0806e+02	9.1908	10.119000	0.000184	1.842214	0.312079	-0.000018
1088	1.0816e+02	9.1797	10.103928	0.000151	1.514709	0.256599	-0.000015
1089	1.0826e+02	9.1672	10.086820	0.000172	1.719399	0.291274	-0.000017
1090	1.0836e+02	9.1567	10.069304	0.000176	1.760338	0.298209	-0.000018
1091	1.0845e+02	9.1498	10.053010	0.000164	1.637523	0.277404	-0.000016
1092	1.0855e+02	9.1382	10.037939	0.000151	1.514709	0.256599	-0.000015
1093	1.0865e+02	9.1281	10.022867	0.000151	1.514709	0.256599	-0.000015
1094	1.0875e+02	9.1251	10.003315	0.000197	1.965028	0.332885	-0.000020
1095	1.0885e+02	9.1104	9.983355	0.000201	2.005966	0.339820	-0.000020
1096	1.0895e+02	9.1004	9.967469	0.000160	1.596585	0.270469	-0.000016
1097	1.0905e+02	9.0897	9.950360	0.000172	1.719399	0.291274	-0.000017
1098	1.0915e+02	9.0794	9.933252	0.000172	1.719399	0.291274	-0.000017
1099	1.0925e+02	9.0707	9.915736	0.000176	1.760338	0.298209	-0.000018
1100	1.0935e+02	9.0595	9.897813	0.000180	1.801276	0.305144	-0.000018
1101	1.0945e+02	9.0506	9.883963	0.000139	1.391895	0.235793	-0.000014
1102	1.0955e+02	9.0408	9.868484	0.000156	1.555647	0.263534	-0.000016
1103	1.0965e+02	9.0314	9.846080	0.000225	2.251595	0.381430	-0.000023
1104	1.0975e+02	9.0170	9.832231	0.000139	1.391895	0.235793	-0.000014
1105	1.0985e+02	9.0083	9.817567	0.000147	1.473771	0.249664	-0.000015
1106	1.0995e+02	8.9998	9.795163	0.000225	2.251595	0.381430	-0.000023
1107	1.1005e+02	8.9919	9.784572	0.000106	1.064390	0.180313	-0.000011
1108	1.1015e+02	8.9795	9.762575	0.000221	2.210656	0.374495	-0.000022
1109	1.1025e+02	8.9682	9.748318	0.000143	1.432833	0.242728	-0.000014
1110	1.1035e+02	8.9600	9.730803	0.000176	1.760338	0.298209	-0.000018
1111	1.1044e+02	8.9496	9.712065	0.000188	1.883152	0.319015	-0.000019
1112	1.1054e+02	8.9380	9.692512	0.000197	1.965028	0.332885	-0.000020
1113	1.1064e+02	8.9289	9.678255	0.000143	1.432833	0.242728	-0.000014
1114	1.1074e+02	8.9203	9.661554	0.000168	1.678461	0.284339	-0.000017
1115	1.1084e+02	8.9095	9.646075	0.000156	1.555647	0.263534	-0.000016
1116	1.1094e+02	8.8983	9.627745	0.000184	1.842214	0.312079	-0.000018
1117	1.1104e+02	8.8892	9.616747	0.000111	1.105328	0.187248	-0.000011
1118	1.1114e+02	8.8818	9.596787	0.000201	2.005966	0.339820	-0.000020
1119	1.1124e+02	8.8679	9.578049	0.000188	1.883152	0.319015	-0.000019
1120	1.1134e+02	8.8623	9.561755	0.000164	1.637523	0.277404	-0.000016
1121	1.1144e+02	8.8510	9.545054	0.000168	1.678461	0.284339	-0.000017
1122	1.1154e+02	8.8391	9.529983	0.000151	1.514709	0.256599	-0.000015
1123	1.1164e+02	8.8317	9.514096	0.000160	1.596585	0.270469	-0.000016
1124	1.1174e+02	8.8205	9.494951	0.000192	1.924090	0.325950	-0.000019
1125	1.1184e+02	8.8097	9.476213	0.000188	1.883152	0.319015	-0.000019
1126	1.1194e+02	8.8037	9.457476	0.000188	1.883152	0.319015	-0.000019
1127	1.1204e+02	8.7919	9.442404	0.000151	1.514709	0.256599	-0.000015
1128	1.1214e+02	8.7817	9.419185	0.000233	2.333471	0.395301	-0.000023
1129	1.1224e+02	8.7733	9.401670	0.000176	1.760338	0.298209	-0.000018
1130	1.1234e+02	8.7615	9.382932	0.000188	1.883152	0.319015	-0.000019
1131	1.1244e+02	8.7524	9.361750	0.000213	2.128780	0.360625	-0.000021
1132	1.1253e+02	8.7403	9.350345	0.000115	1.146266	0.194183	-0.000011
1133	1.1263e+02	8.7293	9.329977	0.000205	2.046904	0.346755	-0.000020
1134	1.1273e+02	8.7214	9.312462	0.000176	1.760338	0.298209	-0.000018
1135	1.1283e+02	8.7116	9.292502	0.000201	2.005966	0.339820	-0.000020
1136	1.1293e+02	8.7025	9.276616	0.000160	1.596585	0.270469	-0.000016
1137	1.1303e+02	8.6917	9.259915	0.000168	1.678461	0.284339	-0.000017
1138	1.1313e+02	8.6819	9.238325	0.000217	2.169718	0.367560	-0.000022
1139	1.1323e+02	8.6707	9.216329	0.000221	2.210656	0.374495	-0.000022
1140	1.1333e+02	8.6627	9.199628	0.000168	1.678461	0.284339	-0.000017
1141	1.1343e+02	8.6499	9.179261	0.000205	2.046904	0.346755	-0.000020
1142	1.1353e+02	8.6426	9.159301	0.000201	2.005966	0.339820	-0.000020
1143	1.1363e+02	8.6299	9.143415	0.000160	1.596585	0.270469	-0.000016
1144	1.1373e+02	8.6215	9.125899	0.000176	1.760338	0.298209	-0.000018
1145	1.1383e+02	8.6142	9.107976	0.000180	1.801276	0.305144	-0.000018
1146	1.1393e+02	8.6013	9.093311	0.000147	1.473771	0.249664	-0.000015
1147	1.1403e+02	8.5925	9.079869	0.000135	1.350957	0.228858	-0.000014
1148	1.1413e+02	8.5841	9.061946	0.000180	1.801276	0.305144	-0.000018
1149	1.1423e+02	8.5716	9.048096	0.000139	1.391895	0.235793	-0.000014
1150	1.1433e+02	8.5638	9.034247	0.000139	1.391895	0.235793	-0.000014
1151	1.1442e+02	8.5528	9.018768	0.000156	1.555647	0.263534	-0.000016
1152	1.1452e+02	8.5433	9.004103	0.000147	1.473771	0.249664	-0.000015
1153	1.1462e+02	8.5313	8.988217	0.000160	1.596585	0.270469	-0.000016
1154	1.1472e+02	8.5226	8.973145	0.000151	1.514709	0.256599	-0.000015
1155	1.1482e+02	8.5132	8.958074	0.000151	1.514709	0.256599	-0.000015
1156	1.1492e+02	8.5026	8.943002	0.000151	1.514709	0.256599	-0.000015
1157	1.1502e+02	8.4931	8.929152	0.000139	1.391895	0.235793	-0.000014
1158	1.1512e+02	8.4803	8.916117	0.000131	1.310019	0.221923	-0.000013
1159	1.1522e+02	8.4732	8.905527	0.000106	1.064390	0.180313	-0.000011
1160	1.1532e+02	8.4636	8.889640	0.000160	1.596585	0.270469	-0.000016
1161	1.1542e+02	8.4514	8.874161	0.000156	1.555647	0.263534	-0.000016
1162	1.1552e+02	8.4431	8.855423	0.000188	1.883152	0.319015	-0.000019
1163	1.1562e+02	8.4331	8.843610	0.000119	1.187204	0.201118	-0.000012
1164	1.1572e+02	8.4238	8.827317	0.000164	1.637523	0.277404	-0.000016
1165	1.1582e+02	8.4126	8.813467	0.000139	1.391895	0.235793	-0.000014
1166	1.1592e+02	8.4023	8.796359	0.000172	1.719399	0.291274	-0.000017
1167	1.1602e+02	8.3906	8.778843	0.000176	1.760338	0.298209	-0.000018
1168	1.1612e+02	8.3819	8.763771	0.000151	1.514709	0.256599	-0.000015
1169	1.1622e+02	8.3729	8.746663	0.000172	1.719399	0.291274	-0.000017
1170	1.1632e+02	8.3643	8.731591	0.000151	1.514709	0.256599	-0.000015
1171	1.1642e+02	8.3545	8.713668	0.000180	1.801276	0.305144	-0.000018
1172	1.1651e+02	8.3426	8.698189	0.000156	1.555647	0.263534	-0.000016
1173	1.1661e+02	8.3340	8.680266	0.000180	1.801276	0.305144	-0.000018
1174	1.1671e+02	8.3229	8.663972	0.000164	1.637523	0.277404	-0.000016
1175	1.1681e+02	8.3154	8.648086	0.000160	1.596585	0.270469	-0.000016
1176	1.1691e+02	8.3043	8.628534	0.000197	1.965028	0.332885	-0.000020
1177	1.1701e+02	8.2954	8.612240	0.000164	1.637523	0.277404	-0.000016
1178	1.1711e+02	8.2854	8.594724	0.000176	1.760338	0.298209	-0.000018
1179	1.1721e+02	8.2729	8.580467	0.000143	1.432833	0.242728	-0.000014
1180	1.1731e+02	8.2642	8.564173	0.000164	1.637523	0.277404	-0.000016
1181	1.1741e+02	8.2538	8.548287	0.000160	1.596585	0.270469	-0.000016
1182	1.1751e+02	8.2433	8.533215	0.000151	1.514709	0.256599	-0.000015
1183	1.1761e+02	8.2337	8.514478	0.000188	1.883152	0.319015	-0.000019
1184	1.1771e+02	8.2227	8.498999	0.000156	1.555647	0.263534	-0.000016
1185	1.1781e+02	8.2122	8.482298	0.000168	1.678461	0.284339	-0.000017
1186	1.1791e+02	8.2042	8.465189	0.000172	1.719399	0.291274	-0.000017
1187	1.1801e+02	8.1952	8.445637	0.000197	1.965028	0.332885	-0.000020
1188	1.1811e+02	8.1838	8.428528	0.000172	1.719399	0.291274	-0.000017
1189	1.1821e+02	8.1747	8.411420	0.000172	1.719399	0.291274	-0.000017
1190	1.1831e+02	8.1664	8.392682	0.000188	1.883152	0.319015	-0.000019
1191	1.1841e+02	8.1559	8.377203	0.000156	1.555647	0.263534	-0.000016
1192	1.1850e+02	8.1440	8.357243	0.000201	2.005966	0.339820	-0.000020
1193	1.1860e+02	8.1355	8.342172	0.000151	1.514709	0.256599	-0.000015
1194	1.1870e+02	8.1244	8.328729	0.000135	1.350957	0.228858	-0.000014
1195	1.1880e+02	8.1166	8.312436	0.000164	1.637523	0.277404	-0.000016
1196	1.1890e+02	8.1091	8.292883	0.000197	1.965028	0.332885	-0.000020
1197	1.1900e+02	8.0957	8.275368	0.000176	1.760338	0.298209	-0.000018
1198	1.1910e+02	8.0864	8.256630	0.000188	1.883152	0.319015	-0.000019
1199	1.1920e+02	8.0762	8.242373	0.000143	1.432833	0.242728	-0.000014
1200	1.1930e+02	8.0664	8.217118	0.000254	2.538161	0.429976	-0.000025
1201	1.1940e+02	8.0566	8.203268	0.000139	1.391895	0.235793	-0.000014
1202	1.1950e+02	8.0433	8.183308	0.000201	2.005966	0.339820	-0.000020
1203	1.1960e+02	8.0366	8.165792	0.000176	1.760338	0.298209	-0.000018
1204	1.1970e+02	8.0242	8.149906	0.000160	1.596585	0.270469	-0.000016
1205	1.1980e+02	8.0131	8.128724	0.000213	2.128780	0.360625	-0.000021
1206	1.1990e+02	8.0054	8.113653	0.000151	1.514709	0.256599	-0.000015
1207	1.2000e+02	7.9936	8.096137	0.000176	1.760338	0.298209	-0.000018
1208	1.2010e+02	7.9853	8.077399	0.000188	1.883152	0.319015	-0.000019
1209	1.2020e+02	7.9762	8.061920	0.000156	1.555647	0.263534	-0.000016
1210	1.2030e+02	7.9656	8.045219	0.000168	1.678461	0.284339	-0.000017
1211	1.2039e+02	7.9559	8.028111	0.000172	1.719399	0.291274	-0.000017
1212	1.2049e+02	7.9450	8.013039	0.000151	1.514709	0.256599	-0.000015
1213	1.2059e+02	7.9353	7.997967	0.000151	1.514709	0.256599	-0.000015
1214	1.2069e+02	7.9243	7.982081	0.000160	1.596585	0.270469	-0.000016
1215	1.2079e+02	7.9165	7.967417	0.000147	1.473771	0.249664	-0.000015
1216	1.2089e+02	7.9065	7.947457	0.000201	2.005966	0.339820	-0.000020
1217	1.2099e+02	7.8953	7.934829	0.000127	1.269081	0.214988	-0.000013
1218	1.2109e+02	7.8865	7.918128	0.000168	1.678461	0.284339	-0.000017
1219	1.2119e+02	7.8780	7.898983	0.000192	1.924090	0.325950	-0.000019
1220	1.2129e+02	7.8662	7.882282	0.000168	1.678461	0.284339	-0.000017
1221	1.2139e+02	7.8550	7.866803	0.000156	1.555647	0.263534	-0.000016
1222	1.2149e+02	7.8443	7.850509	0.000164	1.637523	0.277404	-0.000016
1223	1.2159e+02	7.8359	7.833808	0.000168	1.678461	0.284339	-0.000017
1224	1.2169e+02	7.8293	7.822810	0.000111	1.105328	0.187248	-0.000011
1225	1.2179e+02	7.8156	7.803665	0.000192	1.924090	0.325950	-0.000019
1226	1.2189e+02	7.8056	7.789001	0.000147	1.473771	0.249664	-0.000015
1227	1.2199e+02	7.7975	7.772300	0.000168	1.678461	0.284339	-0.000017
1228	1.2209e+02	7.7866	7.753969	0.000184	1.842214	0.312079	-0.000018
1229	1.2219e+02	7.7763	7.734824	0.000192	1.924090	0.325950	-0.000019
1230	1.2229e+02	7.7674	7.715272	0.000197	1.965028	0.332885	-0.000020
1231	1.2239e+02	7.7567	7.694090	0.000213	2.128780	0.360625	-0.000021
1232	1.2248e+02	7.7460	7.674130	0.000201	2.005966	0.339820	-0.000020
1233	1.2258e+02	7.7361	7.656207	0.000180	1.801276	0.305144	-0.000018
1234	1.2268e+02	7.7271	7.636247	0.000201	2.005966	0.339820	-0.000020
1235	1.2278e+02	7.7167	7.613029	0.000233	2.333471	0.395301	-0.000023
1236	1.2288e+02	7.7059	7.592661	0.000205	2.046904	0.346755	-0.000020
1237	1.2298e+02	7.6943	7.573924	0.000188	1.883152	0.319015	-0.000019
1238	1.2308e+02	7.6865	7.551927	0.000221	2.210656	0.374495	-0.000022
1239	1.2318e+02	7.6795	7.533597	0.000184	1.842214	0.312079	-0.000018
1240	1.2328e+02	7.6672	7.513230	0.000205	2.046904	0.346755	-0.000020
1241	1.2338e+02	7.6585	7.490826	0.000225	2.251595	0.381430	-0.000023
1242	1.2348e+02	7.6472	7.468829	0.000221	2.210656	0.374495	-0.000022
1243	1.2358e+02	7.6371	7.447648	0.000213	2.128780	0.360625	-0.000021
1244	1.2368e+02	7.6265	7.428095	0.000197	1.965028	0.332885	-0.000020
1245	1.2378e+02	7.6172	7.403655	0.000246	2.456285	0.416106	-0.000025
1246	1.2388e+02	7.6060	7.386139	0.000176	1.760338	0.298209	-0.000018
1247	1.2398e+02	7.5954	7.368623	0.000176	1.760338	0.298209	-0.000018
1248	1.2408e+02	7.5864	7.345812	0.000229	2.292533	0.388366	-0.000023
1249	1.2418e+02	7.5767	7.324630	0.000213	2.128780	0.360625	-0.000021
1250	1.2428e+02	7.5665	7.304670	0.000201	2.005966	0.339820	-0.000020
1251	1.2438e+02	7.5594	7.287155	0.000176	1.760338	0.298209	-0.000018
1252	1.2447e+02	7.5455	7.265565	0.000217	2.169718	0.367560	-0.000022
1253	1.2457e+02	7.5401	7.246828	0.000188	1.883152	0.319015	-0.000019
1254	1.2467e+02	7.5271	7.225646	0.000213	2.128780	0.360625	-0.000021
1255	1.2477e+02	7.5187	7.209759	0.000160	1.596585	0.270469	-0.000016
1256	1.2487e+02	7.5067	7.189800	0.000201	2.005966	0.339820	-0.000020
1257	1.2497e+02	7.4979	7.169840	0.000201	2.005966	0.339820	-0.000020
1258	1.2507e+02	7.4873	7.152732	0.000172	1.719399	0.291274	-0.000017
1259	1.2517e+02	7.4786	7.133994	0.000188	1.883152	0.319015	-0.000019
1260	1.2527e+02	7.4660	7.111590	0.000225	2.251595	0.381430	-0.000023
1261	1.2537e+02	7.4585	7.093667	0.000180	1.801276	0.305144	-0.000018
1262	1.2547e+02	7.4484	7.074114	0.000197	1.965028	0.332885	-0.000020
1263	1.2557e+02	7.4384	7.059450	0.000147	1.473771	0.249664	-0.000015
1264	1.2567e+02	7.4278	7.035417	0.000242	2.415347	0.409171	-0.000024
1265	1.2577e+02	7.4174	7.017901	0.000176	1.760338	0.298209	-0.000018
1266	1.2587e+02	7.4075	6.998349	0.000197	1.965028	0.332885	-0.000020
1267	1.2597e+02	7.3996	6.978389	0.000201	2.005966	0.339820	-0.000020
1268	1.2607e+02	7.3898	6.958022	0.000205	2.046904	0.346755	-0.000020
1269	1.2617e+02	7.3766	6.938469	0.000197	1.965028	0.332885	-0.000020
1270	1.2627e+02	7.3695	6.919732	0.000188	1.883152	0.319015	-0.000019
1271	1.2636e+02	7.3602	6.901809	0.000180	1.801276	0.305144	-0.000018
1272	1.2646e+02	7.3482	6.878997	0.000229	2.292533	0.388366	-0.000023
1273	1.2656e+02	7.3379	6.860667	0.000184	1.842214	0.312079	-0.000018
1274	1.2666e+02	7.3269	6.841929	0.000188	1.883152	0.319015	-0.000019
1275	1.2676e+02	7.3172	6.824821	0.000172	1.719399	0.291274	-0.000017
1276	1.2686e+02	7.3082	6.804046	0.000209	2.087842	0.353690	-0.000021
1277	1.2696e+02	7.2998	6.784901	0.000192	1.924090	0.325950	-0.000019
1278	1.2706e+02	7.2891	6.768200	0.000168	1.678461	0.284339	-0.000017
1279	1.2716e+02	7.2803	6.747833	0.000205	2.046904	0.346755	-0.000020
1280	1.2726e+02	7.2705	6.728281	0.000197	1.965028	0.332885	-0.000020
1281	1.2736e+02	7.2597	6.714024	0.000143	1.432833	0.242728	-0.000014
1282	1.2746e+02	7.2517	6.690805	0.000233	2.333471	0.395301	-0.000023
1283	1.2756e+02	7.2369	6.669623	0.000213	2.128780	0.360625	-0.000021
1284	1.2766e+02	7.2279	6.654144	0.000156	1.555647	0.263534	-0.000016
1285	1.2776e+02	7.2220	6.636629	0.000176	1.760338	0.298209	-0.000018
1286	1.2786e+02	7.2091	6.618298	0.000184	1.842214	0.312079	-0.000018
1287	1.2796e+02	7.1997	6.598338	0.000201	2.005966	0.339820	-0.000020
1288	1.2806e+02	7.1916	6.583267	0.000151	1.514709	0.256599	-0.000015
1289	1.2816e+02	7.1786	6.564529	0.000188	1.883152	0.319015	-0.000019
1290	1.2826e+02	7.1704	6.546606	0.000180	1.801276	0.305144	-0.000018
1291	1.2835e+02	7.1613	6.527868	0.000188	1.883152	0.319015	-0.000019
1292	1.2845e+02	7.1510	6.501798	0.000262	2.620037	0.443846	-0.000026
1293	1.2855e+02	7.1404	6.482246	0.000197	1.965028	0.332885	-0.000020
1294	1.2865e+02	7.1306	6.463915	0.000184	1.842214	0.312079	-0.000018
1295	1.2875e+02	7.1217	6.443548	0.000205	2.046904	0.346755	-0.000020
1296	1.2885e+02	7.1077	6.422774	0.000209	2.087842	0.353690	-0.000021
1297	1.2895e+02	7.1001	6.400777	0.000221	2.210656	0.374495	-0.000022
1298	1.2905e+02	7.0913	6.379188	0.000217	2.169718	0.367560	-0.000022
1299	1.2915e+02	7.0781	6.359228	0.000201	2.005966	0.339820	-0.000020
1300	1.2925e+02	7.0679	6.337639	0.000217	2.169718	0.367560	-0.000022
1301	1.2935e+02	7.0586	6.320123	0.000176	1.760338	0.298209	-0.000018
1302	1.2945e+02	7.0501	6.302200	0.000180	1.801276	0.305144	-0.000018
1303	1.2955e+02	7.0449	6.279389	0.000229	2.292533	0.388366	-0.000023
1304	1.2965e+02	7.0286	6.260651	0.000188	1.883152	0.319015	-0.000019
1305	1.2975e+02	7.0213	6.239062	0.000217	2.169718	0.367560	-0.000022
1306	1.2985e+02	7.0092	6.214214	0.000250	2.497223	0.423041	-0.000025
1307	1.2995e+02	7.0020	6.194662	0.000197	1.965028	0.332885	-0.000020
1308	1.3005e+02	6.9936	6.173073	0.000217	2.169718	0.367560	-0.000022
1309	1.3015e+02	6.9794	6.150669	0.000225	2.251595	0.381430	-0.000023
1310	1.3025e+02	6.9693	6.131116	0.000197	1.965028	0.332885	-0.000020
1311	1.3034e+02	6.9611	6.111157	0.000201	2.005966	0.339820	-0.000020
1312	1.3044e+02	6.9514	6.092826	0.000184	1.842214	0.312079	-0.000018
1313	1.3054e+02	6.9423	6.074496	0.000184	1.842214	0.312079	-0.000018
1314	1.3064e+02	6.9314	6.056573	0.000180	1.801276	0.305144	-0.000018
1315	1.3074e+02	6.9204	6.041094	0.000156	1.555647	0.263534	-0.000016
1316	1.3084e+02	6.9115	6.023985	0.000172	1.719399	0.291274	-0.000017
1317	1.3094e+02	6.8990	6.008099	0.000160	1.596585	0.270469	-0.000016
1318	1.3104e+02	6.8874	5.990991	0.000172	1.719399	0.291274	-0.000017
1319	1.3114e+02	6.8801	5.975104	0.000160	1.596585	0.270469	-0.000016
1320	1.3124e+02	6.8726	5.958403	0.000168	1.678461	0.284339	-0.000017
1321	1.3134e+02	6.8618	5.940073	0.000184	1.842214	0.312079	-0.000018
1322	1.3144e+02	6.8507	5.922964	0.000172	1.719399	0.291274	-0.000017
1323	1.3154e+02	6.8398	5.907078	0.000160	1.596585	0.270469	-0.000016
1324	1.3164e+02	6.8317	5.888748	0.000184	1.842214	0.312079	-0.000018
1325	1.3174e+02	6.8221	5.870825	0.000180	1.801276	0.305144	-0.000018
1326	1.3184e+02	6.8105	5.856160	0.000147	1.473771	0.249664	-0.000015
1327	1.3194e+02	6.8018	5.840681	0.000156	1.555647	0.263534	-0.000016
1328	1.3204e+02	6.7915	5.823980	0.000168	1.678461	0.284339	-0.000017
1329	1.3214e+02	6.7809	5.806872	0.000172	1.719399	0.291274	-0.000017
1330	1.3224e+02	6.7706	5.788949	0.000180	1.801276	0.305144	-0.000018
1331	1.3234e+02	6.7620	5.771026	0.000180	1.801276	0.305144	-0.000018
1332	1.3243e+02	6.7524	5.755139	0.000160	1.596585	0.270469	-0.000016
1333	1.3253e+02	6.7432	5.739253	0.000160	1.596585	0.270469	-0.000016
1334	1.3263e+02	6.7312	5.722552	0.000168	1.678461	0.284339	-0.000017
1335	1.3273e+02	6.7219	5.700963	0.000217	2.169718	0.367560	-0.000022
1336	1.3283e+02	6.7120	5.684262	0.000168	1.678461	0.284339	-0.000017
1337	1.3293e+02	6.6990	5.665524	0.000188	1.883152	0.319015	-0.000019
1338	1.3303e+02	6.6912	5.648008	0.000176	1.760338	0.298209	-0.000018
1339	1.3313e+02	6.6827	5.628863	0.000192	1.924090	0.325950	-0.000019
1340	1.3323e+02	6.6715	5.606459	0.000225	2.251595	0.381430	-0.000023
1341	1.3333e+02	6.6640	5.590980	0.000156	1.555647	0.263534	-0.000016
1342	1.3343e+02	6.6528	5.571428	0.000197	1.965028	0.332885	-0.000020
1343	1.3353e+02	6.6418	5.554319	0.000172	1.719399	0.291274	-0.000017
1344	1.3363e+02	6.6320	5.534360	0.000201	2.005966	0.339820	-0.000020
1345	1.3373e+02	6.6222	5.516029	0.000184	1.842214	0.312079	-0.000018
1346	1.3383e+02	6.6122	5.498513	0.000176	1.760338	0.298209	-0.000018
1347	1.3393e+02	6.6036	5.478961	0.000197	1.965028	0.332885	-0.000020
1348	1.3403e+02	6.5938	5.461445	0.000176	1.760338	0.298209	-0.000018
1349	1.3413e+02	6.5807	5.443115	0.000184	1.842214	0.312079	-0.000018
1350	1.3423e+02	6.5726	5.423562	0.000197	1.965028	0.332885	-0.000020
1351	1.3432e+02	6.5639	5.404825	0.000188	1.883152	0.319015	-0.000019
1352	1.3442e+02	6.5517	5.387309	0.000176	1.760338	0.298209	-0.000018
1353	1.3452e+02	6.5423	5.372237	0.000151	1.514709	0.256599	-0.000015
1354	1.3462e+02	6.5332	5.349019	0.000233	2.333471	0.395301	-0.000023
1355	1.3472e+02	6.5218	5.330281	0.000188	1.883152	0.319015	-0.000019
1356	1.3482e+02	6.5137	5.311951	0.000184	1.842214	0.312079	-0.000018
1357	1.3492e+02	6.5029	5.290769	0.000213	2.128780	0.360625	-0.000021
1358	1.3502e+02	6.4933	5.274882	0.000160	1.596585	0.270469	-0.000016
1359	1.3512e+02	6.4831	5.254108	0.000209	2.087842	0.353690	-0.000021
1360	1.3522e+02	6.4733	5.233333	0.000209	2.087842	0.353690	-0.000021
1361	1.3532e+02	6.4621	5.218262	0.000151	1.514709	0.256599	-0.000015
1362	1.3542e+02	6.4521	5.198709	0.000197	1.965028	0.332885	-0.000020
1363	1.3552e+02	6.4432	5.178750	0.000201	2.005966	0.339820	-0.000020
1364	1.3562e+02	6.4315	5.162456	0.000164	1.637523	0.277404	-0.000016
1365	1.3572e+02	6.4211	5.139645	0.000229	2.292533	0.388366	-0.000023
1366	1.3582e+02	6.4141	5.120500	0.000192	1.924090	0.325950	-0.000019
1367	1.3592e+02	6.4024	5.101354	0.000192	1.924090	0.325950	-0.000019
1368	1.3602e+02	6.3927	5.080987	0.000205	2.046904	0.346755	-0.000020
1369	1.3612e+02	6.3842	5.061028	0.000201	2.005966	0.339820	-0.000020
1370	1.3622e+02	6.3737	5.040660	0.000205	2.046904	0.346755	-0.000020
1371	1.3631e+02	6.3636	5.018664	0.000221	2.210656	0.374495	-0.000022
1372	1.3641e+02	6.3528	4.999111	0.000197	1.965028	0.332885	-0.000020
1373	1.3651e+02	6.3440	4.977522	0.000217	2.169718	0.367560	-0.000022
1374	1.3661e+02	6.3330	4.960821	0.000168	1.678461	0.284339	-0.000017
1375	1.3671e+02	6.3244	4.940454	0.000205	2.046904	0.346755	-0.000020
1376	1.3681e+02	6.3137	4.923753	0.000168	1.678461	0.284339	-0.000017
1377	1.3691e+02	6.3026	4.907867	0.000160	1.596585	0.270469	-0.000016
1378	1.3701e+02	6.2939	4.889944	0.000180	1.801276	0.305144	-0.000018
1379	1.3711e+02	6.2842	4.869577	0.000205	2.046904	0.346755	-0.000020
1380	1.3721e+02	6.2746	4.853690	0.000160	1.596585	0.270469	-0.000016
1381	1.3731e+02	6.2649	4.835767	0.000180	1.801276	0.305144	-0.000018
1382	1.3741e+02	6.2551	4.819881	0.000160	1.596585	0.270469	-0.000016
1383	1.3751e+02	6.2455	4.799106	0.000209	2.087842	0.353690	-0.000021
1384	1.3761e+02	6.2355	4.779554	0.000197	1.965028	0.332885	-0.000020
1385	1.3771e+02	6.2254	4.763260	0.000164	1.637523	0.277404	-0.000016
1386	1.3781e+02	6.2127	4.743708	0.000197	1.965028	0.332885	-0.000020
1387	1.3791e+02	6.2037	4.726599	0.000172	1.719399	0.291274	-0.000017
1388	1.3801e+02	6.1950	4.707454	0.000192	1.924090	0.325950	-0.000019
1389	1.3811e+02	6.1842	4.691568	0.000160	1.596585	0.270469	-0.000016
1390	1.3821e+02	6.1764	4.674052	0.000176	1.760338	0.298209	-0.000018
1391	1.3831e+02	6.1642	4.656536	0.000176	1.760338	0.298209	-0.000018
1392	1.3840e+02	6.1544	4.640243	0.000164	1.637523	0.277404	-0.000016
1393	1.3850e+02	6.1465	4.619876	0.000205	2.046904	0.346755	-0.000020
1394	1.3860e+02	6.1358	4.601952	0.000180	1.801276	0.305144	-0.000018
1395	1.3870e+02	6.1254	4.581585	0.000205	2.046904	0.346755	-0.000020
1396	1.3880e+02	6.1160	4.565292	0.000164	1.637523	0.277404	-0.000016
1397	1.3890e+02	6.1048	4.541258	0.000242	2.415347	0.409171	-0.000024
1398	1.3900e+02	6.0934	4.517633	0.000237	2.374409	0.402236	-0.000024
1399	1.3910e+02	6.0865	4.498080	0.000197	1.965028	0.332885	-0.000020
1400	1.3920e+02	6.0754	4.475269	0.000229	2.292533	0.388366	-0.000023
1401	1.3930e+02	6.0665	4.450014	0.000254	2.538161	0.429976	-0.000025
1402	1.3940e+02	6.0556	4.430054	0.000201	2.005966	0.339820	-0.000020
1403	1.3950e+02	6.0449	4.406835	0.000233	2.333471	0.395301	-0.000023
1404	1.3960e+02	6.0355	4.386061	0.000209	2.087842	0.353690	-0.000021
1405	1.3970e+02	6.0255	4.362028	0.000242	2.415347	0.409171	-0.000024
1406	1.3980e+02	6.0152	4.343697	0.000184	1.842214	0.312079	-0.000018
1407	1.3990e+02	6.0062	4.318849	0.000250	2.497223	0.423041	-0.000025
1408	1.4000e+02	5.9933	4.296038	0.000229	2.292533	0.388366	-0.000023
1409	1.4010e+02	5.9861	4.275671	0.000205	2.046904	0.346755	-0.000020
1410	1.4020e+02	5.9766	4.249601	0.000262	2.620037	0.443846	-0.000026
1411	1.4029e+02	5.9673	4.229641	0.000201	2.005966	0.339820	-0.000020
1412	1.4039e+02	5.9589	4.205201	0.000246	2.456285	0.416106	-0.000025
1413	1.4049e+02	5.9467	4.181575	0.000237	2.374409	0.402236	-0.000024
1414	1.4059e+02	5.9380	4.157134	0.000246	2.456285	0.416106	-0.000025
1415	1.4069e+02	5.9274	4.136360	0.000209	2.087842	0.353690	-0.000021
1416	1.4079e+02	5.9153	4.112327	0.000242	2.415347	0.409171	-0.000024
1417	1.4089e+02	5.9065	4.091552	0.000209	2.087842	0.353690	-0.000021
1418	1.4099e+02	5.8938	4.069556	0.000221	2.210656	0.374495	-0.000022
1419	1.4109e+02	5.8862	4.052040	0.000176	1.760338	0.298209	-0.000018
1420	1.4119e+02	5.8800	4.030044	0.000221	2.210656	0.374495	-0.000022
1421	1.4129e+02	5.8669	4.011306	0.000188	1.883152	0.319015	-0.000019
1422	1.4139e+02	5.8573	3.985236	0.000262	2.620037	0.443846	-0.000026
1423	1.4149e+02	5.8434	3.967313	0.000180	1.801276	0.305144	-0.000018
1424	1.4159e+02	5.8419	3.944502	0.000229	2.292533	0.388366	-0.000023
1425	1.4169e+02	5.8276	3.926171	0.000184	1.842214	0.312079	-0.000018
1426	1.4179e+02	5.8157	3.907433	0.000188	1.883152	0.319015	-0.000019
1427	1.4189e+02	5.8064	3.883808	0.000237	2.374409	0.402236	-0.000024
1428	1.4199e+02	5.7978	3.859367	0.000246	2.456285	0.416106	-0.000025
1429	1.4209e+02	5.7867	3.842666	0.000168	1.678461	0.284339	-0.000017
1430	1.4219e+02	5.7769	3.820669	0.000221	2.210656	0.374495	-0.000022
1431	1.4228e+02	5.7681	3.797044	0.000237	2.374409	0.402236	-0.000024
1432	1.4238e+02	5.7584	3.781565	0.000156	1.555647	0.263534	-0.000016
1433	1.4248e+02	5.7491	3.757124	0.000246	2.456285	0.416106	-0.000025
1434	1.4258e+02	5.7362	3.735128	0.000221	2.210656	0.374495	-0.000022
1435	1.4268e+02	5.7277	3.715168	0.000201	2.005966	0.339820	-0.000020
1436	1.4278e+02	5.7168	3.694393	0.000209	2.087842	0.353690	-0.000021
1437	1.4288e+02	5.7072	3.670360	0.000242	2.415347	0.409171	-0.000024
1438	1.4298e+02	5.6959	3.647956	0.000225	2.251595	0.381430	-0.000023
1439	1.4308e+02	5.6860	3.628404	0.000197	1.965028	0.332885	-0.000020
1440	1.4318e+02	5.6763	3.608444	0.000201	2.005966	0.339820	-0.000020
1441	1.4328e+02	5.6686	3.592965	0.000156	1.555647	0.263534	-0.000016
1442	1.4338e+02	5.6592	3.571376	0.000217	2.169718	0.367560	-0.000022
1443	1.4348e+02	5.6474	3.550601	0.000209	2.087842	0.353690	-0.000021
1444	1.4358e+02	5.6377	3.529420	0.000213	2.128780	0.360625	-0.000021
1445	1.4368e+02	5.6252	3.505794	0.000237	2.374409	0.402236	-0.000024
1446	1.4378e+02	5.6191	3.482575	0.000233	2.333471	0.395301	-0.000023
1447	1.4388e+02	5.6080	3.461801	0.000209	2.087842	0.353690	-0.000021
1448	1.4398e+02	5.5979	3.441026	0.000209	2.087842	0.353690	-0.000021
1449	1.4408e+02	5.5901	3.420659	0.000205	2.046904	0.346755	-0.000020
1450	1.4418e+02	5.5791	3.400292	0.000205	2.046904	0.346755	-0.000020
1451	1.4428e+02	5.5697	3.377888	0.000225	2.251595	0.381430	-0.000023
1452	1.4437e+02	5.5595	3.358743	0.000192	1.924090	0.325950	-0.000019
1453	1.4447e+02	5.5471	3.340413	0.000184	1.842214	0.312079	-0.000018
1454	1.4457e+02	5.5376	3.321267	0.000192	1.924090	0.325950	-0.000019
1455	1.4467e+02	5.5274	3.301308	0.000201	2.005966	0.339820	-0.000020
1456	1.4477e+02	5.5173	3.278089	0.000233	2.333471	0.395301	-0.000023
1457	1.4487e+02	5.5089	3.257722	0.000205	2.046904	0.346755	-0.000020
1458	1.4497e+02	5.4970	3.236540	0.000213	2.128780	0.360625	-0.000021
1459	1.4507e+02	5.4878	3.213729	0.000229	2.292533	0.388366	-0.000023
1460	1.4517e+02	5.4781	3.192547	0.000213	2.128780	0.360625	-0.000021
1461	1.4527e+02	5.4684	3.170551	0.000221	2.210656	0.374495	-0.000022
1462	1.4537e+02	5.4561	3.148147	0.000225	2.251595	0.381430	-0.000023
1463	1.4547e+02	5.4487	3.124114	0.000242	2.415347	0.409171	-0.000024
1464	1.4557e+02	5.4387	3.102117	0.000221	2.210656	0.374495	-0.000022
1465	1.4567e+02	5.4284	3.079306	0.000229	2.292533	0.388366	-0.000023
1466	1.4577e+02	5.4195	3.059754	0.000197	1.965028	0.332885	-0.000020
1467	1.4587e+02	5.4083	3.035720	0.000242	2.415347	0.409171	-0.000024
1468	1.4597e+02	5.3988	3.016983	0.000188	1.883152	0.319015	-0.000019
1469	1.4607e+02	5.3890	2.992542	0.000246	2.456285	0.416106	-0.000025
1470	1.4617e+02	5.3788	2.970138	0.000225	2.251595	0.381430	-0.000023
1471	1.4626e+02	5.3704	2.949364	0.000209	2.087842	0.353690	-0.000021
1472	1.4636e+02	5.3608	2.927775	0.000217	2.169718	0.367560	-0.000022
1473	1.4646e+02	5.3478	2.900483	0.000274	2.742852	0.464652	-0.000027
1474	1.4656e+02	5.3392	2.879708	0.000209	2.087842	0.353690	-0.000021
1475	1.4666e+02	5.3310	2.854453	0.000254	2.538161	0.429976	-0.000025
1476	1.4676e+02	5.3194	2.834493	0.000201	2.005966	0.339820	-0.000020
1477	1.4686e+02	5.3111	2.811275	0.000233	2.333471	0.395301	-0.000023
1478	1.4696e+02	5.2985	2.788463	0.000229	2.292533	0.388366	-0.000023
1479	1.4706e+02	5.2921	2.766874	0.000217	2.169718	0.367560	-0.000022
1480	1.4716e+02	5.2776	2.746100	0.000209	2.087842	0.353690	-0.000021
1481	1.4726e+02	5.2691	2.724918	0.000213	2.128780	0.360625	-0.000021
1482	1.4736e+02	5.2602	2.706588	0.000184	1.842214	0.312079	-0.000018
1483	1.4746e+02	5.2509	2.688257	0.000184	1.842214	0.312079	-0.000018
1484	1.4756e+02	5.2395	2.670741	0.000176	1.760338	0.298209	-0.000018
1485	1.4766e+02	5.2297	2.654448	0.000164	1.637523	0.277404	-0.000016
1486	1.4776e+02	5.2192	2.635710	0.000188	1.883152	0.319015	-0.000019
1487	1.4786e+02	5.2079	2.614121	0.000217	2.169718	0.367560	-0.000022
1488	1.4796e+02	5.2004	2.597827	0.000164	1.637523	0.277404	-0.000016
1489	1.4806e+02	5.1885	2.578682	0.000192	1.924090	0.325950	-0.000019
1490	1.4816e+02	5.1775	2.560352	0.000184	1.842214	0.312079	-0.000018
1491	1.4825e+02	5.1693	2.539984	0.000205	2.046904	0.346755	-0.000020
1492	1.4835e+02	5.1603	2.517988	0.000221	2.210656	0.374495	-0.000022
1493	1.4845e+02	5.1514	2.504953	0.000131	1.310019	0.221923	-0.000013
1494	1.4855e+02	5.1390	2.484993	0.000201	2.005966	0.339820	-0.000020
1495	1.4865e+02	5.1303	2.466255	0.000188	1.883152	0.319015	-0.000019
1496	1.4875e+02	5.1177	2.448332	0.000180	1.801276	0.305144	-0.000018
1497	1.4885e+02	5.1090	2.432039	0.000164	1.637523	0.277404	-0.000016
1498	1.4895e+02	5.1017	2.415745	0.000164	1.637523	0.277404	-0.000016
1499	1.4905e+02	5.0884	2.391712	0.000242	2.415347	0.409171	-0.000024
1500	1.4915e+02	5.0805	2.374603	0.000172	1.719399	0.291274	-0.000017
1501	1.4925e+02	5.0675	2.352200	0.000225	2.251595	0.381430	-0.000023
1502	1.4935e+02	5.0627	2.332240	0.000201	2.005966	0.339820	-0.000020
1503	1.4945e+02	5.0500	2.316353	0.000160	1.596585	0.270469	-0.000016
1504	1.4955e+02	5.0389	2.297208	0.000192	1.924090	0.325950	-0.000019
1505	1.4965e+02	5.0300	2.271138	0.000262	2.620037	0.443846	-0.000026
1506	1.4975e+02	5.0209	2.251993	0.000192	1.924090	0.325950	-0.000019
1507	1.4985e+02	5.0108	2.231219	0.000209	2.087842	0.353690	-0.000021
1508	1.4995e+02	5.0014	2.213296	0.000180	1.801276	0.305144	-0.000018
1509	1.5005e+02	4.9920	2.191299	0.000221	2.210656	0.374495	-0.000022
1510	1.5015e+02	4.9805	2.169710	0.000217	2.169718	0.367560	-0.000022
1511	1.5025e+02	4.9717	2.149343	0.000205	2.046904	0.346755	-0.000020
1512	1.5034e+02	4.9616	2.131420	0.000180	1.801276	0.305144	-0.000018
1513	1.5044e+02	4.9524	2.109016	0.000225	2.251595	0.381430	-0.000023
1514	1.5054e+02	4.9414	2.087427	0.000217	2.169718	0.367560	-0.000022
1515	1.5064e+02	4.9323	2.071133	0.000164	1.637523	0.277404	-0.000016
1516	1.5074e+02	4.9212	2.050359	0.000209	2.087842	0.353690	-0.000021
1517	1.5084e+02	4.9117	2.029992	0.000205	2.046904	0.346755	-0.000020
1518	1.5094e+02	4.9038	2.012069	0.000180	1.801276	0.305144	-0.000018
1519	1.5104e+02	4.8930	1.987628	0.000246	2.456285	0.416106	-0.000025
1520	1.5114e+02	4.8807	1.966039	0.000217	2.169718	0.367560	-0.000022
1521	1.5124e+02	4.8713	1.943635	0.000225	2.251595	0.381430	-0.000023
1522	1.5134e+02	4.8624	1.927749	0.000160	1.596585	0.270469	-0.000016
1523	1.5144e+02	4.8510	1.904123	0.000237	2.374409	0.402236	-0.000024
1524	1.5154e+02	4.8425	1.885792	0.000184	1.842214	0.312079	-0.000018
1525	1.5164e+02	4.8312	1.860537	0.000254	2.538161	0.429976	-0.000025
1526	1.5174e+02	4.8231	1.843021	0.000176	1.760338	0.298209	-0.000018
1527	1.5184e+02	4.8110	1.821025	0.000221	2.210656	0.374495	-0.000022
1528	1.5194e+02	4.8040	1.800250	0.000209	2.087842	0.353690	-0.000021
1529	1.5204e+02	4.7912	1.779069	0.000213	2.128780	0.360625	-0.000021
1530	1.5214e+02	4.7816	1.758701	0.000205	2.046904	0.346755	-0.000020
1531	1.5224e+02	4.7738	1.741593	0.000172	1.719399	0.291274	-0.000017
1532	1.5233e+02	4.7634	1.719189	0.000225	2.251595	0.381430	-0.000023
1533	1.5243e+02	4.7504	1.693527	0.000258	2.579099	0.436911	-0.000026
1534	1.5253e+02	4.7414	1.674789	0.000188	1.883152	0.319015	-0.000019
1535	1.5263e+02	4.7294	1.650348	0.000246	2.456285	0.416106	-0.000025
1536	1.5273e+02	4.7205	1.630796	0.000197	1.965028	0.332885	-0.000020
1537	1.5283e+02	4.7111	1.607577	0.000233	2.333471	0.395301	-0.000023
1538	1.5293e+02	4.7027	1.586396	0.000213	2.128780	0.360625	-0.000021
1539	1.5303e+02	4.6902	1.560326	0.000262	2.620037	0.443846	-0.000026
1540	1.5313e+02	4.6822	1.542810	0.000176	1.760338	0.298209	-0.000018
1541	1.5323e+02	4.6725	1.520406	0.000225	2.251595	0.381430	-0.000023
1542	1.5333e+02	4.6658	1.498002	0.000225	2.251595	0.381430	-0.000023
1543	1.5343e+02	4.6514	1.479672	0.000184	1.842214	0.312079	-0.000018
1544	1.5353e+02	4.6447	1.459305	0.000205	2.046904	0.346755	-0.000020
1545	1.5363e+02	4.6311	1.437716	0.000217	2.169718	0.367560	-0.000022
1546	1.5373e+02	4.6249	1.421422	0.000164	1.637523	0.277404	-0.000016
1547	1.5383e+02	4.6156	1.400240	0.000213	2.128780	0.360625	-0.000021
1548	1.5393e+02	4.6028	1.381095	0.000192	1.924090	0.325950	-0.000019
1549	1.5403e+02	4.5927	1.365616	0.000156	1.555647	0.263534	-0.000016
1550	1.5413e+02	4.5845	1.341583	0.000242	2.415347	0.409171	-0.000024
1551	1.5422e+02	4.5714	1.320401	0.000213	2.128780	0.360625	-0.000021
1552	1.5432e+02	4.5641	1.296775	0.000237	2.374409	0.402236	-0.000024
1553	1.5442e+02	4.5550	1.277630	0.000192	1.924090	0.325950	-0.000019
1554	1.5452e+02	4.5432	1.257670	0.000201	2.005966	0.339820	-0.000020
1555	1.5462e+02	4.5336	1.238932	0.000188	1.883152	0.319015	-0.000019
1556	1.5472e+02	4.5228	1.223046	0.000160	1.596585	0.270469	-0.000016
1557	1.5482e+02	4.5110	1.200642	0.000225	2.251595	0.381430	-0.000023
1558	1.5492e+02	4.5031	1.183941	0.000168	1.678461	0.284339	-0.000017
1559	1.5502e+02	4.4939	1.162759	0.000213	2.128780	0.360625	-0.000021
1560	1.5512e+02	4.4827	1.142800	0.000201	2.005966	0.339820	-0.000020
1561	1.5522e+02	4.4741	1.122432	0.000205	2.046904	0.346755	-0.000020
1562	1.5532e+02	4.4630	1.100843	0.000217	2.169718	0.367560	-0.000022
1563	1.5542e+02	4.4552	1.081698	0.000192	1.924090	0.325950	-0.000019
1564	1.5552e+02	4.4438	1.059294	0.000225	2.251595	0.381430	-0.000023
1565	1.5562e+02	4.4372	1.035668	0.000237	2.374409	0.402236	-0.000024
1566	1.5572e+02	4.4225	1.012043	0.000237	2.374409	0.402236	-0.000024
1567	1.5582e+02	4.4135	0.989231	0.000229	2.292533	0.388366	-0.000023
1568	1.5592e+02	4.4054	0.962754	0.000266	2.660975	0.450781	-0.000027
1569	1.5602e+02	4.3947	0.936684	0.000262	2.620037	0.443846	-0.000026
1570	1.5612e+02	4.3850	0.911022	0.000258	2.579099	0.436911	-0.000026
1571	1.5622e+02	4.3745	0.890247	0.000209	2.087842	0.353690	-0.000021
1572	1.5631e+02	4.3626	0.866621	0.000237	2.374409	0.402236	-0.000024
1573	1.5641e+02	4.3549	0.844217	0.000225	2.251595	0.381430	-0.000023
1574	1.5651e+02	4.3429	0.817740	0.000266	2.660975	0.450781	-0.000027
1575	1.5661e+02	4.3346	0.793300	0.000246	2.456285	0.416106	-0.000025
1576	1.5671e+02	4.3258	0.768044	0.000254	2.538161	0.429976	-0.000025
1577	1.5681e+02	4.3145	0.741974	0.000262	2.620037	0.443846	-0.000026
1578	1.5691e+02	4.3066	0.718349	0.000237	2.374409	0.402236	-0.000024
1579	1.5701e+02	4.2941	0.696759	0.000217	2.169718	0.367560	-0.000022
1580	1.5711e+02	4.2815	0.670690	0.000262	2.620037	0.443846	-0.000026
1581	1.5721e+02	4.2751	0.644620	0.000262	2.620037	0.443846	-0.000026
1582	1.5731e+02	4.2640	0.620994	0.000237	2.374409	0.402236	-0.000024
1583	1.5741e+02	4.2542	0.598590	0.000225	2.251595	0.381430	-0.000023
1584	1.5751e+02	4.2435	0.576186	0.000225	2.251595	0.381430	-0.000023
1585	1.5761e+02	4.2346	0.549709	0.000266	2.660975	0.450781	-0.000027
1586	1.5771e+02	4.2236	0.527712	0.000221	2.210656	0.374495	-0.000022
1587	1.5781e+02	4.2168	0.502050	0.000258	2.579099	0.436911	-0.000026
1588	1.5791e+02	4.2043	0.481683	0.000205	2.046904	0.346755	-0.000020
1589	1.5801e+02	4.1946	0.457649	0.000242	2.415347	0.409171	-0.000024
1590	1.5811e+02	4.1858	0.434431	0.000233	2.333471	0.395301	-0.000023
1591	1.5821e+02	4.1758	0.413249	0.000213	2.128780	0.360625	-0.000021
1592	1.5830e+02	4.1674	0.386772	0.000266	2.660975	0.450781	-0.000027
1593	1.5840e+02	4.1562	0.365183	0.000217	2.169718	0.367560	-0.000022
1594	1.5850e+02	4.1453	0.343593	0.000217	2.169718	0.367560	-0.000022
1595	1.5860e+02	4.1351	0.320782	0.000229	2.292533	0.388366	-0.000023
1596	1.5870e+02	4.1216	0.300822	0.000201	2.005966	0.339820	-0.000020
1597	1.5880e+02	4.1129	0.273123	0.000278	2.783790	0.471587	-0.000028
1598	1.5890e+02	4.1065	0.250312	0.000229	2.292533	0.388366	-0.000023
1599	1.5900e+02	4.0931	0.229130	0.000213	2.128780	0.360625	-0.000021
1600	1.5910e+02	4.0827	0.202246	0.000270	2.701913	0.457717	-0.000027
1601	1.5920e+02	4.0746	0.181878	0.000205	2.046904	0.346755	-0.000020
1602	1.5930e+02	4.0699	0.157845	0.000242	2.415347	0.409171	-0.000024
1603	1.5940e+02	4.0566	0.135441	0.000225	2.251595	0.381430	-0.000023
1604	1.5950e+02	4.0469	0.111816	0.000237	2.374409	0.402236	-0.000024
1605	1.5960e+02	4.0373	0.087782	0.000242	2.415347	0.409171	-0.000024
1606	1.5970e+02	4.0281	0.066601	0.000213	2.128780	0.360625	-0.000021
1607	1.5980e+02	4.0162	0.040531	0.000262	2.620037	0.443846	-0.000026
1608	1.5990e+02	4.0029	0.024644	0.000160	1.596585	0.270469	-0.000016
1609	1.6000e+02	3.9989	0.001426	0.000233	2.333471	0.395301	-0.000023
1610	1.6010e+02	3.9852	-0.025052	0.000266	2.660975	0.450781	-0.000027
1611	1.6019e+02	3.9752	-0.046641	0.000217	2.169718	0.367560	-0.000022
1612	1.6029e+02	3.9679	-0.067823	0.000213	2.128780	0.360625	-0.000021
1613	1.6039e+02	3.9562	-0.095522	0.000278	2.783790	0.471587	-0.000028
1614	1.6049e+02	3.9428	-0.118740	0.000233	2.333471	0.395301	-0.000023
1615	1.6059e+02	3.9372	-0.141959	0.000233	2.333471	0.395301	-0.000023
1616	1.6069e+02	3.9239	-0.160697	0.000188	1.883152	0.319015	-0.000019
1617	1.6079e+02	3.9150	-0.186767	0.000262	2.620037	0.443846	-0.000026
1618	1.6089e+02	3.9077	-0.203468	0.000168	1.678461	0.284339	-0.000017
1619	1.6099e+02	3.8986	-0.229538	0.000262	2.620037	0.443846	-0.000026
1620	1.6109e+02	3.8859	-0.253978	0.000246	2.456285	0.416106	-0.000025
1621	1.6119e+02	3.8766	-0.274345	0.000205	2.046904	0.346755	-0.000020
1622	1.6129e+02	3.8672	-0.294305	0.000201	2.005966	0.339820	-0.000020
1623	1.6139e+02	3.8582	-0.319560	0.000254	2.538161	0.429976	-0.000025
1624	1.6149e+02	3.8448	-0.337891	0.000184	1.842214	0.312079	-0.000018
1625	1.6159e+02	3.8367	-0.363553	0.000258	2.579099	0.436911	-0.000026
1626	1.6169e+02	3.8246	-0.386364	0.000229	2.292533	0.388366	-0.000023
1627	1.6179e+02	3.8174	-0.409990	0.000237	2.374409	0.402236	-0.000024
1628	1.6189e+02	3.8070	-0.438504	0.000287	2.865666	0.485457	-0.000029
1629	1.6199e+02	3.7950	-0.457242	0.000188	1.883152	0.319015	-0.000019
1630	1.6209e+02	3.7852	-0.484127	0.000270	2.701913	0.457717	-0.000027
1631	1.6219e+02	3.7778	-0.508160	0.000242	2.415347	0.409171	-0.000024
1632	1.6228e+02	3.7672	-0.535452	0.000274	2.742852	0.464652	-0.000027
1633	1.6238e+02	3.7579	-0.553375	0.000180	1.801276	0.305144	-0.000018
1634	1.6248e+02	3.7462	-0.579445	0.000262	2.620037	0.443846	-0.000026
1635	1.6258e+02	3.7357	-0.604293	0.000250	2.497223	0.423041	-0.000025
1636	1.6268e+02	3.7267	-0.625882	0.000217	2.169718	0.367560	-0.000022
1637	1.6278e+02	3.7186	-0.652359	0.000266	2.660975	0.450781	-0.000027
1638	1.6288e+02	3.7072	-0.674356	0.000221	2.210656	0.374495	-0.000022
1639	1.6298e+02	3.6982	-0.703684	0.000295	2.947542	0.499327	-0.000029
1640	1.6308e+02	3.6839	-0.724051	0.000205	2.046904	0.346755	-0.000020
1641	1.6318e+02	3.6777	-0.747270	0.000233	2.333471	0.395301	-0.000023
1642	1.6328e+02	3.6716	-0.776599	0.000295	2.947542	0.499327	-0.000029
1643	1.6338e+02	3.6582	-0.802668	0.000262	2.620037	0.443846	-0.000026
1644	1.6348e+02	3.6500	-0.827924	0.000254	2.538161	0.429976	-0.000025
1645	1.6358e+02	3.6396	-0.849920	0.000221	2.210656	0.374495	-0.000022
1646	1.6368e+02	3.6302	-0.873546	0.000237	2.374409	0.402236	-0.000024
1647	1.6378e+02	3.6160	-0.893099	0.000197	1.965028	0.332885	-0.000020
1648	1.6388e+02	3.6094	-0.917946	0.000250	2.497223	0.423041	-0.000025
1649	1.6398e+02	3.5990	-0.941572	0.000237	2.374409	0.402236	-0.000024
1650	1.6408e+02	3.5891	-0.959088	0.000176	1.760338	0.298209	-0.000018
1651	1.6418e+02	3.5777	-0.983121	0.000242	2.415347	0.409171	-0.000024
1652	1.6427e+02	3.5676	-0.999415	0.000164	1.637523	0.277404	-0.000016
1653	1.6437e+02	3.5606	-1.021411	0.000221	2.210656	0.374495	-0.000022
1654	1.6447e+02	3.5475	-1.042593	0.000213	2.128780	0.360625	-0.000021
1655	1.6457e+02	3.5410	-1.064997	0.000225	2.251595	0.381430	-0.000023
1656	1.6467e+02	3.5274	-1.082105	0.000172	1.719399	0.291274	-0.000017
1657	1.6477e+02	3.5141	-1.111434	0.000295	2.947542	0.499327	-0.000029
1658	1.6487e+02	3.5111	-1.125284	0.000139	1.391895	0.235793	-0.000014
1659	1.6497e+02	3.4978	-1.146873	0.000217	2.169718	0.367560	-0.000022
1660	1.6507e+02	3.4896	-1.167240	0.000205	2.046904	0.346755	-0.000020
1661	1.6517e+02	3.4780	-1.185978	0.000188	1.883152	0.319015	-0.000019
1662	1.6527e+02	3.4701	-1.207974	0.000221	2.210656	0.374495	-0.000022
1663	1.6537e+02	3.4595	-1.226712	0.000188	1.883152	0.319015	-0.000019
1664	1.6547e+02	3.4451	-1.247079	0.000205	2.046904	0.346755	-0.000020
1665	1.6557e+02	3.4391	-1.268668	0.000217	2.169718	0.367560	-0.000022
1666	1.6567e+02	3.4275	-1.285369	0.000168	1.678461	0.284339	-0.000017
1667	1.6577e+02	3.4203	-1.311032	0.000258	2.579099	0.436911	-0.000026
1668	1.6587e+02	3.4097	-1.332621	0.000217	2.169718	0.367560	-0.000022
1669	1.6597e+02	3.3982	-1.355432	0.000229	2.292533	0.388366	-0.000023
1670	1.6607e+02	3.3899	-1.376614	0.000213	2.128780	0.360625	-0.000021
1671	1.6616e+02	3.3817	-1.396574	0.000201	2.005966	0.339820	-0.000020
1672	1.6626e+02	3.3679	-1.424273	0.000278	2.783790	0.471587	-0.000028
1673	1.6636e+02	3.3582	-1.440974	0.000168	1.678461	0.284339	-0.000017
1674	1.6646e+02	3.3477	-1.466637	0.000258	2.579099	0.436911	-0.000026
1675	1.6656e+02	3.3384	-1.486597	0.000201	2.005966	0.339820	-0.000020
1676	1.6666e+02	3.3276	-1.510223	0.000237	2.374409	0.402236	-0.000024
1677	1.6676e+02	3.3154	-1.533441	0.000233	2.333471	0.395301	-0.000023
1678	1.6686e+02	3.3123	-1.555030	0.000217	2.169718	0.367560	-0.000022
1679	1.6696e+02	3.2991	-1.577434	0.000225	2.251595	0.381430	-0.000023
1680	1.6706e+02	3.2915	-1.598616	0.000213	2.128780	0.360625	-0.000021
1681	1.6716e+02	3.2796	-1.624278	0.000258	2.579099	0.436911	-0.000026
1682	1.6726e+02	3.2705	-1.645868	0.000217	2.169718	0.367560	-0.000022
1683	1.6736e+02	3.2592	-1.669086	0.000233	2.333471	0.395301	-0.000023
1684	1.6746e+02	3.2487	-1.689046	0.000201	2.005966	0.339820	-0.000020
1685	1.6756e+02	3.2385	-1.710635	0.000217	2.169718	0.367560	-0.000022
1686	1.6766e+02	3.2303	-1.729780	0.000192	1.924090	0.325950	-0.000019
1687	1.6776e+02	3.2175	-1.755443	0.000258	2.579099	0.436911	-0.000026
1688	1.6786e+02	3.2088	-1.775810	0.000205	2.046904	0.346755	-0.000020
1689	1.6796e+02	3.1999	-1.800658	0.000250	2.497223	0.423041	-0.000025
1690	1.6806e+02	3.1892	-1.823876	0.000233	2.333471	0.395301	-0.000023
1691	1.6816e+02	3.1834	-1.847095	0.000233	2.333471	0.395301	-0.000023
1692	1.6825e+02	3.1716	-1.872757	0.000258	2.579099	0.436911	-0.000026
1693	1.6835e+02	3.1600	-1.893939	0.000213	2.128780	0.360625	-0.000021
1694	1.6845e+02	3.1509	-1.916343	0.000225	2.251595	0.381430	-0.000023
1695	1.6855e+02	3.1413	-1.939154	0.000229	2.292533	0.388366	-0.000023
1696	1.6865e+02	3.1315	-1.960743	0.000217	2.169718	0.367560	-0.000022
1697	1.6875e+02	3.1200	-1.982740	0.000221	2.210656	0.374495	-0.000022
1698	1.6885e+02	3.1116	-2.005958	0.000233	2.333471	0.395301	-0.000023
1699	1.6895e+02	3.1006	-2.033250	0.000274	2.742852	0.464652	-0.000027
1700	1.6905e+02	3.0868	-2.058098	0.000250	2.497223	0.423041	-0.000025
1701	1.6915e+02	3.0785	-2.079687	0.000217	2.169718	0.367560	-0.000022
1702	1.6925e+02	3.0730	-2.102091	0.000225	2.251595	0.381430	-0.000023
1703	1.6935e+02	3.0595	-2.125717	0.000237	2.374409	0.402236	-0.000024
1704	1.6945e+02	3.0518	-2.149750	0.000242	2.415347	0.409171	-0.000024
1705	1.6955e+02	3.0399	-2.175820	0.000262	2.620037	0.443846	-0.000026
1706	1.6965e+02	3.0306	-2.199039	0.000233	2.333471	0.395301	-0.000023
1707	1.6975e+02	3.0218	-2.223887	0.000250	2.497223	0.423041	-0.000025
1708	1.6985e+02	3.0120	-2.243032	0.000192	1.924090	0.325950	-0.000019
1709	1.6995e+02	3.0003	-2.271546	0.000287	2.865666	0.485457	-0.000029
1710	1.7005e+02	2.9906	-2.291913	0.000205	2.046904	0.346755	-0.000020
1711	1.7015e+02	2.9801	-2.314724	0.000229	2.292533	0.388366	-0.000023
1712	1.7024e+02	2.9714	-2.336313	0.000217	2.169718	0.367560	-0.000022
1713	1.7034e+02	2.9619	-2.353829	0.000176	1.760338	0.298209	-0.000018
1714	1.7044e+02	2.9494	-2.383565	0.000299	2.988480	0.506262	-0.000030
1715	1.7054e+02	2.9406	-2.399451	0.000160	1.596585	0.270469	-0.000016
1716	1.7064e+02	2.9314	-2.426336	0.000270	2.701913	0.457717	-0.000027
1717	1.7074e+02	2.9215	-2.446703	0.000205	2.046904	0.346755	-0.000020
1718	1.7084e+02	2.9073	-2.470329	0.000237	2.374409	0.402236	-0.000024
1719	1.7094e+02	2.8994	-2.486623	0.000164	1.637523	0.277404	-0.000016
1720	1.7104e+02	2.8941	-2.515544	0.000291	2.906604	0.492392	-0.000029
1721	1.7114e+02	2.8824	-2.536726	0.000213	2.128780	0.360625	-0.000021
1722	1.7124e+02	2.8705	-2.556278	0.000197	1.965028	0.332885	-0.000020
1723	1.7134e+02	2.8618	-2.580311	0.000242	2.415347	0.409171	-0.000024
1724	1.7144e+02	2.8500	-2.597420	0.000172	1.719399	0.291274	-0.000017
1725	1.7154e+02	2.8419	-2.620638	0.000233	2.333471	0.395301	-0.000023
1726	1.7164e+02	2.8308	-2.640598	0.000201	2.005966	0.339820	-0.000020
1727	1.7174e+02	2.8248	-2.660965	0.000205	2.046904	0.346755	-0.000020
1728	1.7184e+02	2.8124	-2.685406	0.000246	2.456285	0.416106	-0.000025
1729	1.7194e+02	2.8065	-2.708217	0.000229	2.292533	0.388366	-0.000023
1730	1.7204e+02	2.7919	-2.729806	0.000217	2.169718	0.367560	-0.000022
1731	1.7213e+02	2.7825	-2.754247	0.000246	2.456285	0.416106	-0.000025
1732	1.7223e+02	2.7705	-2.783983	0.000299	2.988480	0.506262	-0.000030
1733	1.7233e+02	2.7618	-2.809238	0.000254	2.538161	0.429976	-0.000025
1734	1.7243e+02	2.7530	-2.829198	0.000201	2.005966	0.339820	-0.000020
1735	1.7253e+02	2.7423	-2.858526	0.000295	2.947542	0.499327	-0.000029
1736	1.7263e+02	2.7325	-2.884596	0.000262	2.620037	0.443846	-0.000026
1737	1.7273e+02	2.7228	-2.912296	0.000278	2.783790	0.471587	-0.000028
1738	1.7283e+02	2.7101	-2.939588	0.000274	2.742852	0.464652	-0.000027
1739	1.7293e+02	2.7001	-2.964435	0.000250	2.497223	0.423041	-0.000025
1740	1.7303e+02	2.6948	-2.991320	0.000270	2.701913	0.457717	-0.000027
1741	1.7313e+02	2.6815	-3.014131	0.000229	2.292533	0.388366	-0.000023
1742	1.7323e+02	2.6706	-3.041016	0.000270	2.701913	0.457717	-0.000027
1743	1.7333e+02	2.6625	-3.069937	0.000291	2.906604	0.492392	-0.000029
1744	1.7343e+02	2.6523	-3.096007	0.000262	2.620037	0.443846	-0.000026
1745	1.7353e+02	2.6434	-3.123299	0.000274	2.742852	0.464652	-0.000027
1746	1.7363e+02	2.6329	-3.149369	0.000262	2.620037	0.443846	-0.000026
1747	1.7373e+02	2.6206	-3.177883	0.000287	2.865666	0.485457	-0.000029
1748	1.7383e+02	2.6124	-3.203138	0.000254	2.538161	0.429976	-0.000025
1749	1.7393e+02	2.6030	-3.228801	0.000258	2.579099	0.436911	-0.000026
1750	1.7403e+02	2.5949	-3.255278	0.000266	2.660975	0.450781	-0.000027
1751	1.7413e+02	2.5817	-3.284199	0.000291	2.906604	0.492392	-0.000029
1752	1.7422e+02	2.5721	-3.310677	0.000266	2.660975	0.450781	-0.000027
1753	1.7432e+02	2.5626	-3.337154	0.000266	2.660975	0.450781	-0.000027
1754	1.7442e+02	2.5543	-3.357521	0.000205	2.046904	0.346755	-0.000020
1755	1.7452e+02	2.5422	-3.382776	0.000254	2.538161	0.429976	-0.000025
1756	1.7462e+02	2.5325	-3.409661	0.000270	2.701913	0.457717	-0.000027
1757	1.7472e+02	2.5233	-3.434509	0.000250	2.497223	0.423041	-0.000025
1758	1.7482e+02	2.5127	-3.459764	0.000254	2.538161	0.429976	-0.000025
1759	1.7492e+02	2.4994	-3.485019	0.000254	2.538161	0.429976	-0.000025
1760	1.7502e+02	2.4949	-3.508645	0.000237	2.374409	0.402236	-0.000024
1761	1.7512e+02	2.4830	-3.530642	0.000221	2.210656	0.374495	-0.000022
1762	1.7522e+02	2.4723	-3.557934	0.000274	2.742852	0.464652	-0.000027
1763	1.7532e+02	2.4651	-3.581559	0.000237	2.374409	0.402236	-0.000024
1764	1.7542e+02	2.4538	-3.606000	0.000246	2.456285	0.416106	-0.000025
1765	1.7552e+02	2.4450	-3.634107	0.000282	2.824728	0.478522	-0.000028
1766	1.7562e+02	2.4318	-3.659362	0.000254	2.538161	0.429976	-0.000025
1767	1.7572e+02	2.4229	-3.683395	0.000242	2.415347	0.409171	-0.000024
1768	1.7582e+02	2.4148	-3.711909	0.000287	2.865666	0.485457	-0.000029
1769	1.7592e+02	2.4049	-3.735128	0.000233	2.333471	0.395301	-0.000023
1770	1.7602e+02	2.3974	-3.757939	0.000229	2.292533	0.388366	-0.000023
1771	1.7612e+02	2.3834	-3.787675	0.000299	2.988480	0.506262	-0.000030
1772	1.7621e+02	2.3748	-3.814967	0.000274	2.742852	0.464652	-0.000027
1773	1.7631e+02	2.3641	-3.835741	0.000209	2.087842	0.353690	-0.000021
1774	1.7641e+02	2.3549	-3.860996	0.000254	2.538161	0.429976	-0.000025
1775	1.7651e+02	2.3455	-3.885030	0.000242	2.415347	0.409171	-0.000024
1776	1.7661e+02	2.3365	-3.910285	0.000254	2.538161	0.429976	-0.000025
1777	1.7671e+02	2.3243	-3.933503	0.000233	2.333471	0.395301	-0.000023
1778	1.7681e+02	2.3122	-3.958759	0.000254	2.538161	0.429976	-0.000025
1779	1.7691e+02	2.3049	-3.985236	0.000266	2.660975	0.450781	-0.000027
1780	1.7701e+02	2.2933	-4.012120	0.000270	2.701913	0.457717	-0.000027
1781	1.7711e+02	2.2832	-4.036968	0.000250	2.497223	0.423041	-0.000025
1782	1.7721e+02	2.2723	-4.064668	0.000278	2.783790	0.471587	-0.000028
1783	1.7731e+02	2.2662	-4.089108	0.000246	2.456285	0.416106	-0.000025
1784	1.7741e+02	2.2543	-4.108253	0.000192	1.924090	0.325950	-0.000019
1785	1.7751e+02	2.2465	-4.133509	0.000254	2.538161	0.429976	-0.000025
1786	1.7761e+02	2.2353	-4.161208	0.000278	2.783790	0.471587	-0.000028
1787	1.7771e+02	2.2247	-4.184426	0.000233	2.333471	0.395301	-0.000023
1788	1.7781e+02	2.2149	-4.212126	0.000278	2.783790	0.471587	-0.000028
1789	1.7791e+02	2.2039	-4.228419	0.000164	1.637523	0.277404	-0.000016
1790	1.7801e+02	2.1970	-4.259377	0.000311	3.111294	0.527068	-0.000031
1791	1.7810e+02	2.1848	-4.279745	0.000205	2.046904	0.346755	-0.000020
1792	1.7820e+02	2.1738	-4.306629	0.000270	2.701913	0.457717	-0.000027
1793	1.7830e+02	2.1627	-4.334328	0.000278	2.783790	0.471587	-0.000028
1794	1.7840e+02	2.1540	-4.355918	0.000217	2.169718	0.367560	-0.000022
1795	1.7850e+02	2.1446	-4.384432	0.000287	2.865666	0.485457	-0.000029
1796	1.7860e+02	2.1365	-4.410909	0.000266	2.660975	0.450781	-0.000027
1797	1.7870e+02	2.1248	-4.438608	0.000278	2.783790	0.471587	-0.000028
1798	1.7880e+02	2.1146	-4.460197	0.000217	2.169718	0.367560	-0.000022
1799	1.7890e+02	2.1072	-4.487897	0.000278	2.783790	0.471587	-0.000028
1800	1.7900e+02	2.0943	-4.516411	0.000287	2.865666	0.485457	-0.000029
1801	1.7910e+02	2.0837	-4.541258	0.000250	2.497223	0.423041	-0.000025
1802	1.7920e+02	2.0764	-4.570180	0.000291	2.906604	0.492392	-0.000029
1803	1.7930e+02	2.0668	-4.594620	0.000246	2.456285	0.416106	-0.000025
1804	1.7940e+02	2.0564	-4.621505	0.000270	2.701913	0.457717	-0.000027
1805	1.7950e+02	2.0451	-4.646760	0.000254	2.538161	0.429976	-0.000025
1806	1.7960e+02	2.0354	-4.674867	0.000282	2.824728	0.478522	-0.000028
1807	1.7970e+02	2.0277	-4.702566	0.000278	2.783790	0.471587	-0.000028
1808	1.7980e+02	2.0167	-4.728229	0.000258	2.579099	0.436911	-0.000026
1809	1.7990e+02	2.0056	-4.757965	0.000299	2.988480	0.506262	-0.000030
1810	1.8000e+02	1.9983	-4.788515	0.000307	3.070356	0.520132	-0.000031
1811	1.8009e+02	1.9857	-4.814178	0.000258	2.579099	0.436911	-0.000026
1812	1.8019e+02	1.9739	-4.836989	0.000229	2.292533	0.388366	-0.000023
1813	1.8029e+02	1.9665	-4.864281	0.000274	2.742852	0.464652	-0.000027
1814	1.8039e+02	1.9550	-4.887907	0.000237	2.374409	0.402236	-0.000024
1815	1.8049e+02	1.9482	-4.912347	0.000246	2.456285	0.416106	-0.000025
1816	1.8059e+02	1.9363	-4.939639	0.000274	2.742852	0.464652	-0.000027
1817	1.8069e+02	1.9256	-4.962043	0.000225	2.251595	0.381430	-0.000023
1818	1.8079e+02	1.9160	-4.985262	0.000233	2.333471	0.395301	-0.000023
1819	1.8089e+02	1.9059	-5.004407	0.000192	1.924090	0.325950	-0.000019
1820	1.8099e+02	1.8948	-5.030477	0.000262	2.620037	0.443846	-0.000026
1821	1.8109e+02	1.8867	-5.051659	0.000213	2.128780	0.360625	-0.000021
1822	1.8119e+02	1.8752	-5.074470	0.000229	2.292533	0.388366	-0.000023
1823	1.8129e+02	1.8672	-5.098096	0.000237	2.374409	0.402236	-0.000024
1824	1.8139e+02	1.8568	-5.120907	0.000229	2.292533	0.388366	-0.000023
1825	1.8149e+02	1.8469	-5.149828	0.000291	2.906604	0.492392	-0.000029
1826	1.8159e+02	1.8356	-5.168159	0.000184	1.842214	0.312079	-0.000018
1827	1.8169e+02	1.8275	-5.191377	0.000233	2.333471	0.395301	-0.000023
1828	1.8179e+02	1.8186	-5.213781	0.000225	2.251595	0.381430	-0.000023
1829	1.8189e+02	1.8053	-5.237000	0.000233	2.333471	0.395301	-0.000023
1830	1.8199e+02	1.7967	-5.256959	0.000201	2.005966	0.339820	-0.000020
1831	1.8209e+02	1.7879	-5.283029	0.000262	2.620037	0.443846	-0.000026
1832	1.8218e+02	1.7775	-5.303396	0.000205	2.046904	0.346755	-0.000020
1833	1.8228e+02	1.7677	-5.328244	0.000250	2.497223	0.423041	-0.000025
1834	1.8238e+02	1.7561	-5.347389	0.000192	1.924090	0.325950	-0.000019
1835	1.8248e+02	1.7467	-5.374681	0.000274	2.742852	0.464652	-0.000027
1836	1.8258e+02	1.7380	-5.399122	0.000246	2.456285	0.416106	-0.000025
1837	1.8268e+02	1.7284	-5.420304	0.000213	2.128780	0.360625	-0.000021
1838	1.8278e+02	1.7144	-5.448818	0.000287	2.865666	0.485457	-0.000029
1839	1.8288e+02	1.7046	-5.467148	0.000184	1.842214	0.312079	-0.000018
1840	1.8298e+02	1.6956	-5.493218	0.000262	2.620037	0.443846	-0.000026
1841	1.8308e+02	1.6872	-5.517659	0.000246	2.456285	0.416106	-0.000025
1842	1.8318e+02	1.6763	-5.543321	0.000258	2.579099	0.436911	-0.000026
1843	1.8328e+02	1.6692	-5.568576	0.000254	2.538161	0.429976	-0.000025
1844	1.8338e+02	1.6579	-5.595461	0.000270	2.701913	0.457717	-0.000027
1845	1.8348e+02	1.6483	-5.620309	0.000250	2.497223	0.423041	-0.000025
1846	1.8358e+02	1.6393	-5.641491	0.000213	2.128780	0.360625	-0.000021
1847	1.8368e+02	1.6280	-5.667968	0.000266	2.660975	0.450781	-0.000027
1848	1.8378e+02	1.6154	-5.691594	0.000237	2.374409	0.402236	-0.000024
1849	1.8388e+02	1.6068	-5.720922	0.000295	2.947542	0.499327	-0.000029
1850	1.8398e+02	1.5968	-5.739660	0.000188	1.883152	0.319015	-0.000019
1851	1.8407e+02	1.5866	-5.765323	0.000258	2.579099	0.436911	-0.000026
1852	1.8417e+02	1.5774	-5.790171	0.000250	2.497223	0.423041	-0.000025
1853	1.8427e+02	1.5661	-5.817870	0.000278	2.783790	0.471587	-0.000028
1854	1.8437e+02	1.5594	-5.839866	0.000221	2.210656	0.374495	-0.000022
1855	1.8447e+02	1.5482	-5.862678	0.000229	2.292533	0.388366	-0.000023
1856	1.8457e+02	1.5398	-5.887933	0.000254	2.538161	0.429976	-0.000025
1857	1.8467e+02	1.5279	-5.913595	0.000258	2.579099	0.436911	-0.000026
1858	1.8477e+02	1.5194	-5.940480	0.000270	2.701913	0.457717	-0.000027
1859	1.8487e+02	1.5085	-5.967365	0.000270	2.701913	0.457717	-0.000027
1860	1.8497e+02	1.4999	-5.992620	0.000254	2.538161	0.429976	-0.000025
1861	1.8507e+02	1.4893	-6.015431	0.000229	2.292533	0.388366	-0.000023
1862	1.8517e+02	1.4787	-6.041501	0.000262	2.620037	0.443846	-0.000026
1863	1.8527e+02	1.4684	-6.067164	0.000258	2.579099	0.436911	-0.000026
1864	1.8537e+02	1.4573	-6.090382	0.000233	2.333471	0.395301	-0.000023
1865	1.8547e+02	1.4474	-6.113601	0.000233	2.333471	0.395301	-0.000023
1866	1.8557e+02	1.4409	-6.140485	0.000270	2.701913	0.457717	-0.000027
1867	1.8567e+02	1.4310	-6.166148	0.000258	2.579099	0.436911	-0.000026
1868	1.8577e+02	1.4183	-6.194662	0.000287	2.865666	0.485457	-0.000029
1869	1.8587e+02	1.4079	-6.218695	0.000242	2.415347	0.409171	-0.000024
1870	1.8597e+02	1.3975	-6.237840	0.000192	1.924090	0.325950	-0.000019
1871	1.8606e+02	1.3896	-6.267576	0.000299	2.988480	0.506262	-0.000030
1872	1.8616e+02	1.3775	-6.298127	0.000307	3.070356	0.520132	-0.000031
1873	1.8626e+02	1.3665	-6.325826	0.000278	2.783790	0.471587	-0.000028
1874	1.8636e+02	1.3598	-6.349045	0.000233	2.333471	0.395301	-0.000023
1875	1.8646e+02	1.3470	-6.377151	0.000282	2.824728	0.478522	-0.000028
1876	1.8656e+02	1.3391	-6.404036	0.000270	2.701913	0.457717	-0.000027
1877	1.8666e+02	1.3284	-6.427254	0.000233	2.333471	0.395301	-0.000023
1878	1.8676e+02	1.3189	-6.447622	0.000205	2.046904	0.346755	-0.000020
1879	1.8686e+02	1.3104	-6.477358	0.000299	2.988480	0.506262	-0.000030
1880	1.8696e+02	1.2979	-6.500983	0.000237	2.374409	0.402236	-0.000024
1881	1.8706e+02	1.2894	-6.524202	0.000233	2.333471	0.395301	-0.000023
1882	1.8716e+02	1.2782	-6.550272	0.000262	2.620037	0.443846	-0.000026
1883	1.8726e+02	1.2690	-6.572676	0.000225	2.251595	0.381430	-0.000023
1884	1.8736e+02	1.2578	-6.597524	0.000250	2.497223	0.423041	-0.000025
1885	1.8746e+02	1.2516	-6.623186	0.000258	2.579099	0.436911	-0.000026
1886	1.8756e+02	1.2411	-6.645997	0.000229	2.292533	0.388366	-0.000023
1887	1.8766e+02	1.2289	-6.670031	0.000242	2.415347	0.409171	-0.000024
1888	1.8776e+02	1.2193	-6.696101	0.000262	2.620037	0.443846	-0.000026
1889	1.8786e+02	1.2095	-6.723392	0.000274	2.742852	0.464652	-0.000027
1890	1.8796e+02	1.1977	-6.743352	0.000201	2.005966	0.339820	-0.000020
1891	1.8806e+02	1.1932	-6.768200	0.000250	2.497223	0.423041	-0.000025
1892	1.8815e+02	1.1787	-6.790197	0.000221	2.210656	0.374495	-0.000022
1893	1.8825e+02	1.1724	-6.813008	0.000229	2.292533	0.388366	-0.000023
1894	1.8835e+02	1.1605	-6.841114	0.000282	2.824728	0.478522	-0.000028
1895	1.8845e+02	1.1494	-6.866370	0.000254	2.538161	0.429976	-0.000025
1896	1.8855e+02	1.1423	-6.887959	0.000217	2.169718	0.367560	-0.000022
1897	1.8865e+02	1.1291	-6.914029	0.000262	2.620037	0.443846	-0.000026
1898	1.8875e+02	1.1227	-6.940506	0.000266	2.660975	0.450781	-0.000027
1899	1.8885e+02	1.1134	-6.966576	0.000262	2.620037	0.443846	-0.000026
1900	1.8895e+02	1.0964	-6.992239	0.000258	2.579099	0.436911	-0.000026
1901	1.8905e+02	1.0896	-7.018716	0.000266	2.660975	0.450781	-0.000027
1902	1.8915e+02	1.0799	-7.047637	0.000291	2.906604	0.492392	-0.000029
1903	1.8925e+02	1.0706	-7.079817	0.000323	3.234109	0.547873	-0.000032
1904	1.8935e+02	1.0628	-7.107924	0.000282	2.824728	0.478522	-0.000028
1905	1.8945e+02	1.0499	-7.135216	0.000274	2.742852	0.464652	-0.000027
1906	1.8955e+02	1.0418	-7.163322	0.000282	2.824728	0.478522	-0.000028
1907	1.8965e+02	1.0334	-7.193058	0.000299	2.988480	0.506262	-0.000030
1908	1.8975e+02	1.0207	-7.223609	0.000307	3.070356	0.520132	-0.000031
1909	1.8985e+02	1.0091	-7.250494	0.000270	2.701913	0.457717	-0.000027
1910	1.8995e+02	1.0006	-7.278193	0.000278	2.783790	0.471587	-0.000028
1911	1.9004e+02	0.9908	-7.305892	0.000278	2.783790	0.471587	-0.000028
1912	1.9014e+02	0.9808	-7.336850	0.000311	3.111294	0.527068	-0.000031
1913	1.9024e+02	0.9703	-7.366994	0.000303	3.029418	0.513197	-0.000030
1914	1.9034e+02	0.9606	-7.398766	0.000319	3.193170	0.540938	-0.000032
1915	1.9044e+02	0.9528	-7.428910	0.000303	3.029418	0.513197	-0.000030
1916	1.9054e+02	0.9413	-7.455387	0.000266	2.660975	0.450781	-0.000027
1917	1.9064e+02	0.9306	-7.482679	0.000274	2.742852	0.464652	-0.000027
1918	1.9074e+02	0.9198	-7.515674	0.000332	3.315985	0.561743	-0.000033
1919	1.9084e+02	0.9122	-7.543780	0.000282	2.824728	0.478522	-0.000028
1920	1.9094e+02	0.8991	-7.568628	0.000250	2.497223	0.423041	-0.000025
1921	1.9104e+02	0.8909	-7.597142	0.000287	2.865666	0.485457	-0.000029
1922	1.9114e+02	0.8804	-7.624842	0.000278	2.783790	0.471587	-0.000028
1923	1.9124e+02	0.8710	-7.652541	0.000278	2.783790	0.471587	-0.000028
1924	1.9134e+02	0.8638	-7.680647	0.000282	2.824728	0.478522	-0.000028
1925	1.9144e+02	0.8530	-7.709161	0.000287	2.865666	0.485457	-0.000029
1926	1.9154e+02	0.8443	-7.733195	0.000242	2.415347	0.409171	-0.000024
1927	1.9164e+02	0.8314	-7.759265	0.000262	2.620037	0.443846	-0.000026
1928	1.9174e+02	0.8221	-7.785742	0.000266	2.660975	0.450781	-0.000027
1929	1.9184e+02	0.8116	-7.815071	0.000295	2.947542	0.499327	-0.000029
1930	1.9194e+02	0.8022	-7.845621	0.000307	3.070356	0.520132	-0.000031
1931	1.9203e+02	0.7913	-7.870062	0.000246	2.456285	0.416106	-0.000025
1932	1.9213e+02	0.7809	-7.901020	0.000311	3.111294	0.527068	-0.000031
1933	1.9223e+02	0.7705	-7.925460	0.000246	2.456285	0.416106	-0.000025
1934	1.9233e+02	0.7601	-7.954382	0.000291	2.906604	0.492392	-0.000029
1935	1.9243e+02	0.7518	-7.982081	0.000278	2.783790	0.471587	-0.000028
1936	1.9253e+02	0.7426	-8.009780	0.000278	2.783790	0.471587	-0.000028
1937	1.9263e+02	0.7341	-8.036665	0.000270	2.701913	0.457717	-0.000027
1938	1.9273e+02	0.7217	-8.068438	0.000319	3.193170	0.540938	-0.000032
1939	1.9283e+02	0.7125	-8.094915	0.000266	2.660975	0.450781	-0.000027
1940	1.9293e+02	0.7015	-8.121799	0.000270	2.701913	0.457717	-0.000027
1941	1.9303e+02	0.6914	-8.148277	0.000266	2.660975	0.450781	-0.000027
1942	1.9313e+02	0.6816	-8.175569	0.000274	2.742852	0.464652	-0.000027
1943	1.9323e+02	0.6719	-8.204897	0.000295	2.947542	0.499327	-0.000029
1944	1.9333e+02	0.6605	-8.231782	0.000270	2.701913	0.457717	-0.000027
1945	1.9343e+02	0.6499	-8.257445	0.000258	2.579099	0.436911	-0.000026
1946	1.9353e+02	0.6425	-8.285144	0.000278	2.783790	0.471587	-0.000028
1947	1.9363e+02	0.6306	-8.311621	0.000266	2.660975	0.450781	-0.000027
1948	1.9373e+02	0.6226	-8.345431	0.000340	3.397861	0.575613	-0.000034
1949	1.9383e+02	0.6123	-8.371908	0.000266	2.660975	0.450781	-0.000027
1950	1.9393e+02	0.6002	-8.398385	0.000266	2.660975	0.450781	-0.000027
1951	1.9403e+02	0.5962	-8.420789	0.000225	2.251595	0.381430	-0.000023
1952	1.9412e+02	0.5800	-8.451340	0.000307	3.070356	0.520132	-0.000031
1953	1.9422e+02	0.5717	-8.477817	0.000266	2.660975	0.450781	-0.000027
1954	1.9432e+02	0.5630	-8.506331	0.000287	2.865666	0.485457	-0.000029
1955	1.9442e+02	0.5529	-8.531179	0.000250	2.497223	0.423041	-0.000025
1956	1.9452e+02	0.5423	-8.557249	0.000262	2.620037	0.443846	-0.000026
1957	1.9462e+02	0.5295	-8.586577	0.000295	2.947542	0.499327	-0.000029
1958	1.9472e+02	0.5225	-8.614684	0.000282	2.824728	0.478522	-0.000028
1959	1.9482e+02	0.5135	-8.640754	0.000262	2.620037	0.443846	-0.000026
1960	1.9492e+02	0.5018	-8.669675	0.000291	2.906604	0.492392	-0.000029
1961	1.9502e+02	0.4919	-8.693301	0.000237	2.374409	0.402236	-0.000024
1962	1.9512e+02	0.4829	-8.724259	0.000311	3.111294	0.527068	-0.000031
1963	1.9522e+02	0.4738	-8.753588	0.000295	2.947542	0.499327	-0.000029
1964	1.9532e+02	0.4628	-8.784546	0.000311	3.111294	0.527068	-0.000031
1965	1.9542e+02	0.4549	-8.812245	0.000278	2.783790	0.471587	-0.000028
1966	1.9552e+02	0.4422	-8.839537	0.000274	2.742852	0.464652	-0.000027
1967	1.9562e+02	0.4334	-8.874161	0.000348	3.479737	0.589483	-0.000035
1968	1.9572e+02	0.4241	-8.899416	0.000254	2.538161	0.429976	-0.000025
1969	1.9582e+02	0.4140	-8.927930	0.000287	2.865666	0.485457	-0.000029
1970	1.9592e+02	0.4043	-8.956852	0.000291	2.906604	0.492392	-0.000029
1971	1.9601e+02	0.3937	-8.986180	0.000295	2.947542	0.499327	-0.000029
1972	1.9611e+02	0.3866	-9.016324	0.000303	3.029418	0.513197	-0.000030
1973	1.9621e+02	0.3737	-9.043208	0.000270	2.701913	0.457717	-0.000027
1974	1.9631e+02	0.3626	-9.073352	0.000303	3.029418	0.513197	-0.000030
1975	1.9641e+02	0.3546	-9.106346	0.000332	3.315985	0.561743	-0.000033
1976	1.9651e+02	0.3438	-9.133638	0.000274	2.742852	0.464652	-0.000027
1977	1.9661e+02	0.3336	-9.162152	0.000287	2.865666	0.485457	-0.000029
1978	1.9671e+02	0.3259	-9.193110	0.000311	3.111294	0.527068	-0.000031
1979	1.9681e+02	0.3137	-9.224068	0.000311	3.111294	0.527068	-0.000031
1980	1.9691e+02	0.3033	-9.249324	0.000254	2.538161	0.429976	-0.000025
1981	1.9701e+02	0.2934	-9.278245	0.000291	2.906604	0.492392	-0.000029
1982	1.9711e+02	0.2824	-9.308796	0.000307	3.070356	0.520132	-0.000031
1983	1.9721e+02	0.2737	-9.330792	0.000221	2.210656	0.374495	-0.000022
1984	1.9731e+02	0.2631	-9.360121	0.000295	2.947542	0.499327	-0.000029
1985	1.9741e+02	0.2560	-9.388635	0.000287	2.865666	0.485457	-0.000029
1986	1.9751e+02	0.2443	-9.409409	0.000209	2.087842	0.353690	-0.000021
1987	1.9761e+02	0.2337	-9.436701	0.000274	2.742852	0.464652	-0.000027
1988	1.9771e+02	0.2256	-9.462771	0.000262	2.620037	0.443846	-0.000026
1989	1.9781e+02	0.2135	-9.488841	0.000262	2.620037	0.443846	-0.000026
1990	1.9791e+02	0.2020	-9.514911	0.000262	2.620037	0.443846	-0.000026
1991	1.9800e+02	0.1955	-9.542610	0.000278	2.783790	0.471587	-0.000028
1992	1.9810e+02	0.1849	-9.567458	0.000250	2.497223	0.423041	-0.000025
1993	1.9820e+02	0.1744	-9.589862	0.000225	2.251595	0.381430	-0.000023
1994	1.9830e+02	0.1663	-9.618783	0.000291	2.906604	0.492392	-0.000029
1995	1.9840e+02	0.1533	-9.646075	0.000274	2.742852	0.464652	-0.000027
1996	1.9850e+02	0.1434	-9.666442	0.000205	2.046904	0.346755	-0.000020
1997	1.9860e+02	0.1358	-9.692920	0.000266	2.660975	0.450781	-0.000027
1998	1.9870e+02	0.1254	-9.715731	0.000229	2.292533	0.388366	-0.000023
1999	1.9880e+02	0.1157	-9.744245	0.000287	2.865666	0.485457	-0.000029
2000	1.9890e+02	0.1035	-9.771129	0.000270	2.701913	0.457717	-0.000027
2001	1.9900e+02	0.0985	-9.793533	0.000225	2.251595	0.381430	-0.000023
2002	1.9910e+02	0.0855	-9.820011	0.000266	2.660975	0.450781	-0.000027
2003	1.9920e+02	0.0768	-9.845673	0.000258	2.579099	0.436911	-0.000026
2004	1.9930e+02	0.0640	-9.877446	0.000319	3.193170	0.540938	-0.000032
2005	1.9940e+02	0.0560	-9.902701	0.000254	2.538161	0.429976	-0.000025
2006	1.9950e+02	0.0439	-9.925512	0.000229	2.292533	0.388366	-0.000023
2007	1.9960e+02	0.0344	-9.953619	0.000282	2.824728	0.478522	-0.000028
2008	1.9970e+02	0.0266	-9.982133	0.000287	2.865666	0.485457	-0.000029
2009	1.9980e+02	0.0166	-10.011869	0.000299	2.988480	0.506262	-0.000030
2010	1.9990e+02	0.0048	-10.036309	0.000246	2.456285	0.416106	-0.000025
2011	2.0000e+02	-0.0046	-10.064823	0.000246	2.456285	0.416106	-0.000029

PMax (uC/cm2):	2.27e+01
Pr (uC/cm2):	1.27e+00
-Pr (uC/cm2):	0.00e+00
PLoss (uC/cm2):	0.00e+00
C (Max-Eff) (nF):	2.27e-01
K (Eff):	3.84e+02
Vert. (+/-Pr) Shift (uC/cm2):	6.33e-01
Offset (uC/cm2):	1.13e+01

A (Loop Area - uC/cm2·Volts):	-1.21e-02



Hysteresis Version: 5.48.1 - Radiant Technologies, Inc., 1999 - 9/12/24

